Data from 2025-12-03_xpw_interference_micrometer_637_FLMS141361__73__723.txt Node

Date: Wed Dec 03 15:56:12 MST 2025
User: james
Spectrometer: FLMS14136
Trigger mode: 0
Integration Time (sec): 1.000000E-1
Scans to average: 1
Electric dark correction enabled: true
Nonlinearity correction enabled: false
Boxcar width: 0
XAxis mode: Wavelengths
Number of Pixels in Spectrum: 2048
>>>>>Begin Spectral Data<<<<<
339.315	16.44
339.697	16.44
340.079	16.44
340.461	-83.14
340.843	-149.53
341.225	-108.68
341.607	-93.36
341.989	-88.25
342.371	-121.45
342.752	-62.72
343.134	-16.76
343.516	-70.38
343.897	-26.97
344.279	67.5
344.661	31.76
345.042	-11.65
345.423	77.72
345.805	116.02
346.186	121.13
346.567	98.15
346.949	87.93
347.33	85.38
347.711	136.45
348.092	225.81
348.473	202.83
348.854	248.79
349.235	315.18
349.616	264.12
349.997	307.52
350.378	327.95
350.758	269.22
351.139	256.45
351.52	348.38
351.9	297.31
352.281	292.2
352.661	345.82
353.042	358.59
353.422	404.55
353.803	379.02
354.183	330.5
354.563	338.16
354.943	399.44
355.324	345.82
355.704	322.84
356.084	356.04
356.464	384.12
356.844	424.98
357.224	368.8
357.603	437.74
357.983	368.8
358.363	463.28
358.743	356.04
359.122	384.12
359.502	307.52
359.882	399.44
360.261	391.78
360.641	322.84
361.02	345.82
361.399	338.16
361.779	379.02
362.158	315.18
362.537	422.42
362.916	343.27
363.296	348.38
363.675	353.48
364.054	322.84
364.433	366.25
364.812	402
365.19	399.44
365.569	376.46
365.948	350.93
366.327	373.91
366.705	320.29
367.084	327.95
367.463	363.7
367.841	330.5
368.22	284.54
368.598	356.04
368.977	384.12
369.355	315.18
369.733	340.72
370.111	302.42
370.49	368.8
370.868	340.72
371.246	343.27
371.624	345.82
372.002	274.33
372.38	287.1
372.758	376.46
373.136	345.82
373.513	353.48
373.891	327.95
374.269	348.38
374.646	302.42
375.024	394.34
375.402	320.29
375.779	348.38
376.157	276.88
376.534	386.68
376.911	402
377.289	325.4
377.666	287.1
378.043	333.06
378.42	348.38
378.797	335.61
379.175	348.38
379.552	307.52
379.929	386.68
380.305	322.84
380.682	312.63
381.059	348.38
381.436	368.8
381.813	292.2
382.189	325.4
382.566	356.04
382.943	379.02
383.319	343.27
383.696	310.08
384.072	363.7
384.448	384.12
384.825	373.91
385.201	361.14
385.577	325.4
385.953	304.97
386.329	315.18
386.706	407.1
387.082	366.25
387.458	353.48
387.834	389.23
388.209	338.16
388.585	373.91
388.961	353.48
389.337	376.46
389.713	333.06
390.088	327.95
390.464	366.25
390.839	366.25
391.215	465.83
391.59	350.93
391.966	384.12
392.341	414.76
392.716	358.59
393.092	335.61
393.467	345.82
393.842	330.5
394.217	320.29
394.592	353.48
394.967	327.95
395.342	368.8
395.717	402
396.092	335.61
396.467	325.4
396.841	368.8
397.216	394.34
397.591	335.61
397.965	368.8
398.34	394.34
398.714	348.38
399.089	402
399.463	394.34
399.838	363.7
400.212	350.93
400.586	327.95
400.961	350.93
401.335	350.93
401.709	350.93
402.083	381.57
402.457	394.34
402.831	310.08
403.205	391.78
403.579	361.14
403.953	366.25
404.326	345.82
404.7	356.04
405.074	371.36
405.447	361.14
405.821	389.23
406.195	440.3
406.568	379.02
406.942	427.53
407.315	361.14
407.688	409.66
408.062	435.19
408.435	338.16
408.808	353.48
409.181	366.25
409.554	368.8
409.927	391.78
410.3	399.44
410.673	396.89
411.046	338.16
411.419	317.74
411.792	396.89
412.165	322.84
412.537	322.84
412.91	363.7
413.283	343.27
413.655	363.7
414.028	396.89
414.4	402
414.773	391.78
415.145	366.25
415.517	381.57
415.889	338.16
416.262	310.08
416.634	350.93
417.006	353.48
417.378	371.36
417.75	358.59
418.122	386.68
418.494	427.53
418.866	315.18
419.238	381.57
419.609	399.44
419.981	379.02
420.353	394.34
420.725	363.7
421.096	432.64
421.468	327.95
421.839	317.74
422.211	361.14
422.582	325.4
422.953	396.89
423.325	409.66
423.696	440.3
424.067	422.42
424.438	394.34
424.809	389.23
425.18	455.62
425.551	450.51
425.922	371.36
426.293	432.64
426.664	333.06
427.035	458.17
427.406	445.4
427.776	356.04
428.147	366.25
428.518	396.89
428.888	363.7
429.259	381.57
429.629	384.12
429.999	322.84
430.37	389.23
430.74	447.96
431.11	407.1
431.481	422.42
431.851	407.1
432.221	373.91
432.591	343.27
432.961	327.95
433.331	396.89
433.701	404.55
434.071	361.14
434.441	345.82
434.81	404.55
435.18	343.27
435.55	427.53
435.919	432.64
436.289	338.16
436.658	361.14
437.028	330.5
437.397	414.76
437.767	453.07
438.136	430.08
438.505	361.14
438.875	340.72
439.244	412.21
439.613	422.42
439.982	409.66
440.351	412.21
440.72	407.1
441.089	417.32
441.458	391.78
441.827	379.02
442.196	371.36
442.564	450.51
442.933	368.8
443.302	325.4
443.67	389.23
444.039	366.25
444.407	373.91
444.776	373.91
445.144	338.16
445.513	312.63
445.881	399.44
446.249	350.93
446.617	325.4
446.986	379.02
447.354	391.78
447.722	430.08
448.09	371.36
448.458	460.73
448.826	373.91
449.194	356.04
449.561	389.23
449.929	386.68
450.297	363.7
450.665	371.36
451.032	358.59
451.4	343.27
451.767	389.23
452.135	386.68
452.502	453.07
452.87	404.55
453.237	356.04
453.604	358.59
453.971	414.76
454.339	402
454.706	422.42
455.073	358.59
455.44	379.02
455.807	335.61
456.174	402
456.541	442.85
456.908	424.98
457.274	445.4
457.641	399.44
458.008	391.78
458.374	361.14
458.741	473.49
459.108	468.39
459.474	389.23
459.841	391.78
460.207	407.1
460.573	396.89
460.94	373.91
461.306	450.51
461.672	361.14
462.038	358.59
462.404	384.12
462.771	381.57
463.137	384.12
463.503	340.72
463.868	373.91
464.234	330.5
464.6	402
464.966	432.64
465.332	356.04
465.697	402
466.063	376.46
466.429	407.1
466.794	391.78
467.16	414.76
467.525	412.21
467.89	399.44
468.256	389.23
468.621	366.25
468.986	335.61
469.351	396.89
469.717	384.12
470.082	414.76
470.447	363.7
470.812	419.87
471.177	333.06
471.542	437.74
471.906	407.1
472.271	376.46
472.636	409.66
473.001	335.61
473.365	424.98
473.73	399.44
474.094	363.7
474.459	419.87
474.823	419.87
475.188	361.14
475.552	384.12
475.917	412.21
476.281	445.4
476.645	486.26
477.009	396.89
477.373	396.89
477.737	391.78
478.101	402
478.465	381.57
478.829	465.83
479.193	368.8
479.557	350.93
479.921	386.68
480.284	361.14
480.648	366.25
481.012	419.87
481.375	391.78
481.739	389.23
482.102	422.42
482.466	404.55
482.829	460.73
483.193	396.89
483.556	353.48
483.919	371.36
484.282	376.46
484.645	358.59
485.009	404.55
485.372	453.07
485.735	345.82
486.098	373.91
486.46	394.34
486.823	417.32
487.186	381.57
487.549	430.08
487.912	432.64
488.274	422.42
488.637	435.19
488.999	407.1
489.362	338.16
489.724	427.53
490.087	381.57
490.449	417.32
490.811	379.02
491.174	384.12
491.536	430.08
491.898	361.14
492.26	379.02
492.622	394.34
492.984	366.25
493.346	414.76
493.708	294.76
494.07	338.16
494.432	437.74
494.794	348.38
495.155	325.4
495.517	384.12
495.879	404.55
496.24	338.16
496.602	435.19
496.963	384.12
497.325	381.57
497.686	432.64
498.048	414.76
498.409	407.1
498.77	356.04
499.131	366.25
499.492	386.68
499.854	350.93
500.215	404.55
500.576	363.7
500.937	312.63
501.298	322.84
501.658	391.78
502.019	396.89
502.38	361.14
502.741	437.74
503.101	376.46
503.462	391.78
503.823	353.48
504.183	427.53
504.543	409.66
504.904	317.74
505.264	350.93
505.625	396.89
505.985	389.23
506.345	394.34
506.705	373.91
507.065	412.21
507.426	368.8
507.786	363.7
508.146	381.57
508.505	371.36
508.865	386.68
509.225	358.59
509.585	396.89
509.945	402
510.304	356.04
510.664	435.19
511.024	440.3
511.383	358.59
511.743	412.21
512.102	409.66
512.462	402
512.821	394.34
513.18	384.12
513.539	345.82
513.899	399.44
514.258	376.46
514.617	391.78
514.976	453.07
515.335	373.91
515.694	409.66
516.053	368.8
516.412	402
516.771	381.57
517.129	412.21
517.488	404.55
517.847	404.55
518.205	437.74
518.564	402
518.922	402
519.281	396.89
519.639	396.89
519.998	358.59
520.356	442.85
520.714	396.89
521.073	404.55
521.431	373.91
521.789	363.7
522.147	422.42
522.505	496.47
522.863	391.78
523.221	402
523.579	361.14
523.937	350.93
524.295	386.68
524.652	350.93
525.01	350.93
525.368	356.04
525.725	488.81
526.083	414.76
526.44	407.1
526.798	407.1
527.155	389.23
527.513	404.55
527.87	361.14
528.227	394.34
528.584	379.02
528.942	394.34
529.299	376.46
529.656	442.85
530.013	407.1
530.37	379.02
530.727	447.96
531.083	440.3
531.44	376.46
531.797	389.23
532.154	435.19
532.511	450.51
532.867	338.16
533.224	379.02
533.58	394.34
533.937	407.1
534.293	409.66
534.65	389.23
535.006	363.7
535.362	340.72
535.718	424.98
536.075	424.98
536.431	445.4
536.787	427.53
537.143	371.36
537.499	381.57
537.855	432.64
538.211	447.96
538.567	343.27
538.923	407.1
539.278	417.32
539.634	407.1
539.99	353.48
540.345	396.89
540.701	399.44
541.056	404.55
541.412	373.91
541.767	396.89
542.123	460.73
542.478	404.55
542.833	442.85
543.188	381.57
543.544	343.27
543.899	399.44
544.254	325.4
544.609	371.36
544.964	376.46
545.319	417.32
545.674	424.98
546.029	353.48
546.383	427.53
546.738	353.48
547.093	399.44
547.447	422.42
547.802	422.42
548.157	399.44
548.511	325.4
548.866	338.16
549.22	381.57
549.574	407.1
549.929	353.48
550.283	358.59
550.637	404.55
550.991	371.36
551.345	450.51
551.699	412.21
552.053	404.55
552.407	437.74
552.761	417.32
553.115	430.08
553.469	386.68
553.823	391.78
554.176	358.59
554.53	358.59
554.884	353.48
555.237	639.46
555.591	478.6
555.944	440.3
556.298	322.84
556.651	371.36
557.005	371.36
557.358	379.02
557.711	353.48
558.064	412.21
558.417	412.21
558.771	437.74
559.124	460.73
559.477	345.82
559.83	386.68
560.182	356.04
560.535	384.12
560.888	343.27
561.241	348.38
561.594	384.12
561.946	379.02
562.299	396.89
562.651	335.61
563.004	384.12
563.356	315.18
563.709	414.76
564.061	379.02
564.413	435.19
564.766	391.78
565.118	394.34
565.47	427.53
565.822	389.23
566.174	402
566.526	299.86
566.878	381.57
567.23	373.91
567.582	348.38
567.934	366.25
568.286	412.21
568.638	371.36
568.989	345.82
569.341	338.16
569.693	373.91
570.044	407.1
570.396	340.72
570.747	363.7
571.098	379.02
571.45	371.36
571.801	394.34
572.152	402
572.504	437.74
572.855	435.19
573.206	381.57
573.557	473.49
573.908	376.46
574.259	435.19
574.61	381.57
574.961	345.82
575.311	412.21
575.662	373.91
576.013	396.89
576.364	381.57
576.714	389.23
577.065	442.85
577.415	386.68
577.766	348.38
578.116	432.64
578.467	419.87
578.817	468.39
579.167	379.02
579.518	348.38
579.868	340.72
580.218	394.34
580.568	399.44
580.918	419.87
581.268	394.34
581.618	412.21
581.968	396.89
582.318	358.59
582.668	368.8
583.017	376.46
583.367	356.04
583.717	419.87
584.066	399.44
584.416	394.34
584.765	394.34
585.115	455.62
585.464	419.87
585.814	409.66
586.163	345.82
586.512	396.89
586.862	412.21
587.211	379.02
587.56	363.7
587.909	373.91
588.258	409.66
588.607	371.36
588.956	430.08
589.305	391.78
589.654	376.46
590.002	404.55
590.351	350.93
590.7	409.66
591.048	386.68
591.397	389.23
591.746	427.53
592.094	453.07
592.443	384.12
592.791	445.4
593.139	363.7
593.488	394.34
593.836	483.71
594.184	437.74
594.532	391.78
594.88	437.74
595.228	381.57
595.576	315.18
595.924	389.23
596.272	356.04
596.62	424.98
596.968	391.78
597.316	343.27
597.664	455.62
598.011	379.02
598.359	417.32
598.706	432.64
599.054	371.36
599.402	386.68
599.749	445.4
600.096	384.12
600.444	371.36
600.791	458.17
601.138	450.51
601.485	427.53
601.833	350.93
602.18	386.68
602.527	353.48
602.874	424.98
603.221	363.7
603.568	407.1
603.914	384.12
604.261	412.21
604.608	422.42
604.955	310.08
605.301	399.44
605.648	330.5
605.995	350.93
606.341	366.25
606.688	330.5
607.034	379.02
607.38	345.82
607.727	356.04
608.073	343.27
608.419	422.42
608.765	363.7
609.112	455.62
609.458	363.7
609.804	366.25
610.15	412.21
610.496	366.25
610.842	412.21
611.187	432.64
611.533	368.8
611.879	447.96
612.225	424.98
612.57	458.17
612.916	412.21
613.261	348.38
613.607	348.38
613.952	386.68
614.298	430.08
614.643	381.57
614.989	399.44
615.334	476.05
615.679	404.55
616.024	363.7
616.369	361.14
616.714	440.3
617.059	386.68
617.404	463.28
617.749	376.46
618.094	350.93
618.439	363.7
618.784	358.59
619.129	417.32
619.473	373.91
619.818	315.18
620.163	366.25
620.507	363.7
620.852	384.12
621.196	345.82
621.54	384.12
621.885	409.66
622.229	463.28
622.573	407.1
622.918	404.55
623.262	386.68
623.606	363.7
623.95	417.32
624.294	394.34
624.638	381.57
624.982	317.74
625.326	417.32
625.67	404.55
626.013	386.68
626.357	366.25
626.701	373.91
627.044	389.23
627.388	437.74
627.731	389.23
628.075	368.8
628.418	402
628.762	348.38
629.105	389.23
629.448	343.27
629.792	353.48
630.135	402
630.478	404.55
630.821	404.55
631.164	330.5
631.507	340.72
631.85	381.57
632.193	386.68
632.536	315.18
632.879	350.93
633.221	396.89
633.564	437.74
633.907	419.87
634.249	430.08
634.592	407.1
634.935	409.66
635.277	404.55
635.619	409.66
635.962	384.12
636.304	389.23
636.646	399.44
636.989	407.1
637.331	353.48
637.673	422.42
638.015	440.3
638.357	389.23
638.699	430.08
639.041	458.17
639.383	427.53
639.725	404.55
640.067	384.12
640.408	368.8
640.75	389.23
641.092	379.02
641.433	391.78
641.775	356.04
642.116	358.59
642.458	419.87
642.799	465.83
643.141	386.68
643.482	486.26
643.823	363.7
644.164	368.8
644.506	432.64
644.847	394.34
645.188	422.42
645.529	396.89
645.87	404.55
646.211	381.57
646.552	386.68
646.893	478.6
647.233	404.55
647.574	402
647.915	366.25
648.255	363.7
648.596	404.55
648.937	402
649.277	345.82
649.618	389.23
649.958	391.78
650.298	350.93
650.639	437.74
650.979	322.84
651.319	368.8
651.659	427.53
651.999	417.32
652.339	419.87
652.679	391.78
653.019	343.27
653.359	389.23
653.699	358.59
654.039	379.02
654.379	299.86
654.719	427.53
655.058	363.7
655.398	430.08
655.737	511.79
656.077	396.89
656.416	414.76
656.756	412.21
657.095	373.91
657.435	409.66
657.774	394.34
658.113	366.25
658.452	417.32
658.792	453.07
659.131	409.66
659.47	340.72
659.809	368.8
660.148	333.06
660.487	381.57
660.826	389.23
661.164	320.29
661.503	384.12
661.842	493.92
662.181	437.74
662.519	363.7
662.858	340.72
663.196	345.82
663.535	350.93
663.873	373.91
664.212	402
664.55	361.14
664.888	363.7
665.226	356.04
665.565	381.57
665.903	560.31
666.241	417.32
666.579	386.68
666.917	363.7
667.255	381.57
667.593	343.27
667.931	419.87
668.268	358.59
668.606	407.1
668.944	335.61
669.282	350.93
669.619	343.27
669.957	409.66
670.294	379.02
670.632	450.51
670.969	335.61
671.307	458.17
671.644	455.62
671.981	399.44
672.318	338.16
672.656	435.19
672.993	409.66
673.33	381.57
673.667	389.23
674.004	363.7
674.341	432.64
674.678	353.48
675.015	381.57
675.351	476.05
675.688	391.78
676.025	402
676.362	386.68
676.698	402
677.035	361.14
677.371	407.1
677.708	361.14
678.044	302.42
678.38	356.04
678.717	356.04
679.053	384.12
679.389	386.68
679.725	366.25
680.062	327.95
680.398	368.8
680.734	402
681.07	373.91
681.406	414.76
681.742	338.16
682.077	363.7
682.413	396.89
682.749	345.82
683.085	325.4
683.42	327.95
683.756	340.72
684.091	430.08
684.427	419.87
684.762	419.87
685.098	358.59
685.433	396.89
685.768	368.8
686.104	353.48
686.439	327.95
686.774	379.02
687.109	338.16
687.444	414.76
687.779	386.68
688.114	353.48
688.449	384.12
688.784	363.7
689.119	310.08
689.454	338.16
689.789	381.57
690.123	437.74
690.458	371.36
690.792	417.32
691.127	333.06
691.461	294.76
691.796	358.59
692.13	402
692.465	399.44
692.799	356.04
693.133	358.59
693.467	322.84
693.802	294.76
694.136	358.59
694.47	394.34
694.804	445.4
695.138	427.53
695.472	343.27
695.806	399.44
696.139	412.21
696.473	396.89
696.807	343.27
697.141	386.68
697.474	322.84
697.808	402
698.141	384.12
698.475	371.36
698.808	363.7
699.142	366.25
699.475	356.04
699.808	356.04
700.142	386.68
700.475	463.28
700.808	414.76
701.141	379.02
701.474	368.8
701.807	276.88
702.14	330.5
702.473	386.68
702.806	409.66
703.139	322.84
703.472	404.55
703.804	422.42
704.137	292.2
704.47	384.12
704.802	350.93
705.135	335.61
705.467	381.57
705.8	447.96
706.132	437.74
706.464	402
706.797	404.55
707.129	340.72
707.461	348.38
707.793	353.48
708.125	340.72
708.457	386.68
708.789	350.93
709.121	435.19
709.453	432.64
709.785	396.89
710.117	419.87
710.449	335.61
710.781	381.57
711.112	371.36
711.444	430.08
711.775	307.52
712.107	399.44
712.438	402
712.77	335.61
713.101	363.7
713.433	389.23
713.764	368.8
714.095	320.29
714.426	353.48
714.757	381.57
715.089	358.59
715.42	368.8
715.751	386.68
716.082	417.32
716.412	396.89
716.743	333.06
717.074	333.06
717.405	424.98
717.736	373.91
718.066	435.19
718.397	422.42
718.727	376.46
719.058	371.36
719.388	422.42
719.719	361.14
720.049	417.32
720.38	384.12
720.71	371.36
721.04	396.89
721.37	478.6
721.7	465.83
722.031	371.36
722.361	350.93
722.691	281.99
723.021	414.76
723.35	366.25
723.68	468.39
724.01	381.57
724.34	381.57
724.67	330.5
724.999	399.44
725.329	440.3
725.658	407.1
725.988	371.36
726.317	325.4
726.647	338.16
726.976	353.48
727.306	353.48
727.635	345.82
727.964	368.8
728.293	440.3
728.622	422.42
728.952	396.89
729.281	404.55
729.61	384.12
729.939	379.02
730.267	356.04
730.596	343.27
730.925	361.14
731.254	386.68
731.583	394.34
731.911	302.42
732.24	269.22
732.568	463.28
732.897	404.55
733.225	412.21
733.554	386.68
733.882	458.17
734.21	345.82
734.539	381.57
734.867	427.53
735.195	414.76
735.523	424.98
735.851	435.19
736.179	417.32
736.507	363.7
736.835	304.97
737.163	396.89
737.491	330.5
737.819	399.44
738.147	391.78
738.474	409.66
738.802	389.23
739.13	396.89
739.457	414.76
739.785	376.46
740.112	399.44
740.44	389.23
740.767	424.98
741.094	442.85
741.422	384.12
741.749	414.76
742.076	358.59
742.403	381.57
742.73	335.61
743.057	320.29
743.384	340.72
743.711	399.44
744.038	381.57
744.365	460.73
744.692	417.32
745.018	407.1
745.345	353.48
745.672	391.78
745.998	358.59
746.325	343.27
746.651	394.34
746.978	407.1
747.304	376.46
747.631	404.55
747.957	412.21
748.283	310.08
748.61	353.48
748.936	338.16
749.262	402
749.588	407.1
749.914	371.36
750.24	442.85
750.566	450.51
750.892	345.82
751.218	368.8
751.543	371.36
751.869	376.46
752.195	353.48
752.521	394.34
752.846	404.55
753.172	417.32
753.497	368.8
753.823	356.04
754.148	447.96
754.473	391.78
754.799	368.8
755.124	363.7
755.449	424.98
755.774	409.66
756.1	371.36
756.425	379.02
756.75	381.57
757.075	381.57
757.4	542.43
757.724	427.53
758.049	424.98
758.374	402
758.699	381.57
759.024	409.66
759.348	424.98
759.673	356.04
759.997	432.64
760.322	432.64
760.646	261.56
760.971	453.07
761.295	399.44
761.619	422.42
761.944	437.74
762.268	432.64
762.592	478.6
762.916	491.37
763.24	437.74
763.564	486.26
763.888	422.42
764.212	450.51
764.536	501.58
764.86	578.18
765.184	713.51
765.508	739.04
765.831	813.09
766.155	1139.92
766.478	866.71
766.802	792.66
767.126	708.4
767.449	754.36
767.772	790.11
768.096	1053.11
768.419	1219.08
768.742	1540.8
769.066	1476.97
769.389	1453.99
769.712	1405.48
770.035	1265.04
770.358	1068.43
770.681	973.95
771.004	1025.02
771.327	1326.32
771.65	1558.68
771.972	2071.91
772.295	2511.09
772.618	2720.46
772.941	2421.72
773.263	2036.16
773.586	1691.45
773.908	1502.5
774.231	1265.04
774.553	1185.88
774.875	1653.15
775.198	2230.22
775.52	2723.02
775.842	2896.65
776.164	2814.94
776.487	2809.83
776.809	2271.07
777.131	1688.9
777.453	1346.75
777.775	1193.54
778.096	1405.48
778.418	2046.37
778.74	2950.27
779.062	3969.07
779.384	4985.31
779.705	5217.67
780.027	4492.51
780.348	3693.3
780.67	2970.7
780.991	2166.38
781.313	1773.16
781.634	1783.37
781.955	2439.59
782.277	3305.19
782.598	4132.48
782.919	5386.19
783.24	5718.13
783.561	5623.66
783.882	5309.59
784.203	4288.24
784.524	3031.98
784.845	2151.06
785.166	2010.63
785.487	2488.11
785.807	3473.71
786.128	4178.44
786.449	5049.15
786.769	6435.63
787.09	7347.19
787.41	7063.76
787.731	5301.93
788.051	3644.79
788.372	2421.72
788.692	1974.88
789.012	2194.47
789.332	2993.68
789.653	4249.94
789.973	5644.08
790.293	7153.13
790.613	8100.43
790.933	8554.93
791.253	7579.54
791.573	5876.44
791.893	4211.64
792.212	2666.84
792.532	2056.59
792.852	2130.63
793.171	2837.92
793.491	3940.98
793.811	5373.42
794.13	6754.8
794.45	7178.66
794.769	6772.68
795.088	5960.7
795.408	4438.89
795.727	3343.49
796.046	2401.29
796.365	1992.75
796.684	2587.69
797.004	3864.38
797.323	5580.25
797.642	7753.17
797.96	9560.96
798.279	10196.76
798.598	10002.7
798.917	8680.05
799.236	6731.82
799.554	4341.86
799.873	2715.36
800.192	1714.43
800.51	1548.46
800.829	1987.65
801.147	2763.87
801.466	3892.47
801.784	5526.63
802.102	6198.17
802.421	6193.06
802.739	5590.46
803.057	4622.73
803.375	3570.74
803.693	2503.43
804.011	1770.61
804.329	1443.78
804.647	1545.91
804.965	2015.73
805.283	2809.83
805.601	3925.66
805.918	4839.77
806.236	5232.99
806.554	5222.78
806.871	4801.47
807.189	4053.33
807.507	3100.92
807.824	2107.65
808.141	1484.63
808.459	1180.78
808.776	1160.35
809.093	1433.56
809.411	1923.81
809.728	2618.33
810.045	3190.29
810.362	3481.37
810.679	3629.47
810.996	3052.4
811.313	2490.66
811.63	1913.6
811.947	1451.44
812.264	1157.8
812.58	1042.9
812.897	1160.35
813.214	1566.34
813.53	2064.25
813.847	2786.85
814.163	3172.41
814.48	3236.25
814.796	3180.07
815.113	2917.07
815.429	2442.15
815.745	1714.43
816.061	1257.38
816.378	897.35
816.694	856.5
817.01	746.7
817.326	986.72
817.642	1277.81
817.958	1609.75
818.274	1951.9
818.59	2176.6
818.905	2020.84
819.221	1783.37
819.537	1535.7
819.852	1221.63
820.168	1104.18
820.484	838.63
820.799	769.68
821.115	744.15
821.43	785
821.745	925.44
822.061	1216.53
822.376	1428.46
822.691	1558.68
823.006	1548.46
823.322	1561.23
823.637	1410.58
823.952	1328.87
824.267	1168.01
824.582	1009.7
824.897	792.66
825.211	629.25
825.526	532.22
825.841	626.69
826.156	731.38
826.47	790.11
826.785	871.82
827.1	966.29
827.414	1096.52
827.729	1081.2
828.043	1019.91
828.357	866.71
828.672	774.79
828.986	601.16
829.3	532.22
829.614	511.79
829.929	496.47
830.243	552.65
830.557	639.46
830.871	782.45
831.185	853.95
831.499	938.21
831.812	1007.15
832.126	999.49
832.44	866.71
832.754	774.79
833.067	665
833.381	616.48
833.695	532.22
834.008	470.94
834.322	389.23
834.635	455.62
834.948	422.42
835.262	486.26
835.575	552.65
835.888	613.93
836.201	672.66
836.515	703.3
836.828	739.04
837.141	695.64
837.454	619.03
837.767	583.29
838.08	424.98
838.392	463.28
838.705	379.02
839.018	453.07
839.331	419.87
839.643	422.42
839.956	386.68
840.269	537.33
840.581	458.17
840.894	460.73
841.206	473.49
841.519	659.89
841.831	524.56
842.143	476.05
842.455	363.7
842.768	402
843.08	381.57
843.392	407.1
843.704	412.21
844.016	468.39
844.328	371.36
844.64	442.85
844.952	455.62
845.263	478.6
845.575	511.79
845.887	519.45
846.199	453.07
846.51	422.42
846.822	414.76
847.133	394.34
847.445	465.83
847.756	407.1
848.068	366.25
848.379	310.08
848.69	361.14
849.002	335.61
849.313	399.44
849.624	430.08
849.935	366.25
850.246	453.07
850.557	399.44
850.868	476.05
851.179	435.19
851.49	368.8
851.801	361.14
852.112	363.7
852.422	381.57
852.733	391.78
853.044	363.7
853.354	350.93
853.665	412.21
853.975	417.32
854.286	407.1
854.596	412.21
854.906	402
855.217	376.46
855.527	435.19
855.837	358.59
856.147	371.36
856.458	361.14
856.768	348.38
857.078	453.07
857.388	409.66
857.698	391.78
858.007	366.25
858.317	440.3
858.627	417.32
858.937	450.51
859.246	371.36
859.556	430.08
859.866	348.38
860.175	368.8
860.485	348.38
860.794	402
861.104	373.91
861.413	368.8
861.722	404.55
862.032	368.8
862.341	366.25
862.65	361.14
862.959	322.84
863.268	386.68
863.577	327.95
863.886	389.23
864.195	361.14
864.504	422.42
864.813	353.48
865.122	338.16
865.43	363.7
865.739	376.46
866.048	361.14
866.356	325.4
866.665	368.8
866.973	412.21
867.282	348.38
867.59	371.36
867.899	363.7
868.207	358.59
868.515	345.82
868.823	373.91
869.132	356.04
869.44	386.68
869.748	373.91
870.056	399.44
870.364	371.36
870.672	363.7
870.98	384.12
871.288	381.57
871.595	394.34
871.903	432.64
872.211	396.89
872.518	350.93
872.826	381.57
873.134	371.36
873.441	345.82
873.749	379.02
874.056	376.46
874.363	289.65
874.671	376.46
874.978	348.38
875.285	302.42
875.592	430.08
875.9	396.89
876.207	368.8
876.514	327.95
876.821	376.46
877.128	343.27
877.435	389.23
877.741	394.34
878.048	409.66
878.355	399.44
878.662	325.4
878.968	373.91
879.275	366.25
879.582	419.87
879.888	373.91
880.195	414.76
880.501	432.64
880.807	353.48
881.114	353.48
881.42	284.54
881.726	315.18
882.032	356.04
882.339	407.1
882.645	366.25
882.951	343.27
883.257	327.95
883.563	399.44
883.869	373.91
884.174	389.23
884.48	432.64
884.786	384.12
885.092	327.95
885.397	340.72
885.703	363.7
886.009	356.04
886.314	396.89
886.62	430.08
886.925	371.36
887.231	279.44
887.536	389.23
887.841	368.8
888.146	373.91
888.452	391.78
888.757	320.29
889.062	368.8
889.367	307.52
889.672	361.14
889.977	304.97
890.282	407.1
890.587	338.16
890.892	368.8
891.196	381.57
891.501	317.74
891.806	399.44
892.11	389.23
892.415	348.38
892.72	417.32
893.024	353.48
893.328	486.26
893.633	363.7
893.937	363.7
894.242	419.87
894.546	310.08
894.85	427.53
895.154	412.21
895.458	330.5
895.762	414.76
896.066	422.42
896.37	358.59
896.674	325.4
896.978	345.82
897.282	371.36
897.586	396.89
897.89	343.27
898.193	379.02
898.497	379.02
898.801	442.85
899.104	389.23
899.408	386.68
899.711	343.27
900.014	384.12
900.318	442.85
900.621	358.59
900.924	333.06
901.228	376.46
901.531	330.5
901.834	350.93
902.137	338.16
902.44	371.36
902.743	348.38
903.046	412.21
903.349	340.72
903.652	353.48
903.955	340.72
904.257	379.02
904.56	412.21
904.863	361.14
905.165	376.46
905.468	356.04
905.77	348.38
906.073	376.46
906.375	447.96
906.678	394.34
906.98	414.76
907.282	424.98
907.584	409.66
907.887	424.98
908.189	371.36
908.491	407.1
908.793	366.25
909.095	409.66
909.397	330.5
909.699	371.36
910.001	307.52
910.302	424.98
910.604	368.8
910.906	381.57
911.208	427.53
911.509	338.16
911.811	356.04
912.112	363.7
912.414	402
912.715	358.59
913.017	379.02
913.318	414.76
913.619	381.57
913.92	381.57
914.222	384.12
914.523	297.31
914.824	376.46
915.125	376.46
915.426	381.57
915.727	432.64
916.028	414.76
916.329	322.84
916.63	358.59
916.93	386.68
917.231	412.21
917.532	350.93
917.832	361.14
918.133	358.59
918.434	384.12
918.734	402
919.034	381.57
919.335	366.25
919.635	384.12
919.935	376.46
920.236	330.5
920.536	391.78
920.836	389.23
921.136	350.93
921.436	506.69
921.736	422.42
922.036	402
922.336	322.84
922.636	391.78
922.936	376.46
923.236	402
923.535	402
923.835	396.89
924.135	361.14
924.434	384.12
924.734	381.57
925.033	284.54
925.333	338.16
925.632	412.21
925.932	402
926.231	335.61
926.53	384.12
926.83	445.4
927.129	386.68
927.428	284.54
927.727	338.16
928.026	396.89
928.325	412.21
928.624	327.95
928.923	368.8
929.222	358.59
929.52	353.48
929.819	407.1
930.118	327.95
930.417	430.08
930.715	379.02
931.014	407.1
931.312	476.05
931.611	384.12
931.909	373.91
932.207	287.1
932.506	384.12
932.804	304.97
933.102	407.1
933.401	396.89
933.699	450.51
933.997	422.42
934.295	353.48
934.593	358.59
934.891	302.42
935.189	379.02
935.487	427.53
935.784	361.14
936.082	404.55
936.38	396.89
936.677	379.02
936.975	414.76
937.273	386.68
937.57	386.68
937.868	394.34
938.165	424.98
938.463	381.57
938.76	404.55
939.057	419.87
939.354	391.78
939.652	396.89
939.949	361.14
940.246	386.68
940.543	353.48
940.84	371.36
941.137	317.74
941.434	356.04
941.731	414.76
942.028	366.25
942.324	345.82
942.621	384.12
942.918	409.66
943.214	432.64
943.511	327.95
943.807	399.44
944.104	396.89
944.4	338.16
944.697	350.93
944.993	424.98
945.29	399.44
945.586	363.7
945.882	379.02
946.178	340.72
946.474	381.57
946.77	414.76
947.066	391.78
947.362	419.87
947.658	376.46
947.954	350.93
948.25	356.04
948.546	345.82
948.842	399.44
949.137	419.87
949.433	325.4
949.729	333.06
950.024	333.06
950.32	327.95
950.615	414.76
950.91	389.23
951.206	402
951.501	361.14
951.796	379.02
952.092	366.25
952.387	312.63
952.682	361.14
952.977	396.89
953.272	384.12
953.567	358.59
953.862	361.14
954.157	402
954.452	399.44
954.747	376.46
955.041	317.74
955.336	381.57
955.631	386.68
955.925	348.38
956.22	394.34
956.514	384.12
956.809	396.89
957.103	338.16
957.398	302.42
957.692	350.93
957.986	315.18
958.281	358.59
958.575	414.76
958.869	396.89
959.163	310.08
959.457	358.59
959.751	348.38
960.045	361.14
960.339	384.12
960.633	376.46
960.927	409.66
961.221	404.55
961.514	442.85
961.808	350.93
962.102	409.66
962.395	358.59
962.689	366.25
962.982	371.36
963.276	396.89
963.569	414.76
963.862	419.87
964.156	455.62
964.449	376.46
964.742	414.76
965.035	294.76
965.328	338.16
965.622	361.14
965.915	333.06
966.208	356.04
966.5	348.38
966.793	353.48
967.086	407.1
967.379	371.36
967.672	348.38
967.964	343.27
968.257	412.21
968.55	394.34
968.842	361.14
969.135	373.91
969.427	371.36
969.72	386.68
970.012	422.42
970.304	381.57
970.597	361.14
970.889	391.78
971.181	363.7
971.473	340.72
971.765	407.1
972.057	447.96
972.349	412.21
972.641	417.32
972.933	391.78
973.225	379.02
973.517	409.66
973.809	381.57
974.1	353.48
974.392	391.78
974.684	338.16
974.975	312.63
975.267	417.32
975.558	366.25
975.85	366.25
976.141	343.27
976.432	396.89
976.724	399.44
977.015	384.12
977.306	399.44
977.597	335.61
977.888	327.95
978.179	363.7
978.47	371.36
978.761	419.87
979.052	389.23
979.343	343.27
979.634	330.5
979.925	366.25
980.215	368.8
980.506	373.91
980.797	453.07
981.087	320.29
981.378	348.38
981.668	394.34
981.959	396.89
982.249	289.65
982.54	350.93
982.83	430.08
983.12	407.1
983.41	379.02
983.701	325.4
983.991	366.25
984.281	394.34
984.571	414.76
984.861	384.12
985.151	358.59
985.441	353.48
985.73	417.32
986.02	330.5
986.31	335.61
986.6	445.4
986.889	458.17
987.179	455.62
987.469	402
987.758	343.27
988.048	417.32
988.337	353.48
988.626	350.93
988.916	488.81
989.205	427.53
989.494	333.06
989.783	299.86
990.073	345.82
990.362	409.66
990.651	394.34
990.94	391.78
991.229	350.93
991.518	343.27
991.806	358.59
992.095	310.08
992.384	402
992.673	371.36
992.961	340.72
993.25	394.34
993.539	350.93
993.827	396.89
994.116	330.5
994.404	361.14
994.692	366.25
994.981	437.74
995.269	419.87
995.557	391.78
995.846	386.68
996.134	435.19
996.422	430.08
996.71	312.63
996.998	417.32
997.286	424.98
997.574	432.64
997.862	368.8
998.15	432.64
998.437	358.59
998.725	366.25
999.013	402
999.3	368.8
999.588	366.25
999.876	409.66
1000.163	333.06
1000.45	468.39
1000.738	338.16
1001.025	389.23
1001.313	363.7
1001.6	412.21
1001.887	394.34
1002.174	399.44
1002.461	292.2
1002.748	391.78
1003.036	453.07
1003.322	340.72
1003.609	363.7
1003.896	366.25
1004.183	356.04
1004.47	386.68
1004.757	361.14
1005.043	335.61
1005.33	389.23
1005.617	368.8
1005.903	358.59
1006.19	361.14
1006.476	394.34
1006.763	399.44
1007.049	348.38
1007.335	404.55
1007.622	402
1007.908	381.57
1008.194	394.34
1008.48	373.91
1008.766	335.61
1009.053	315.18
1009.339	391.78
1009.625	386.68
1009.91	366.25
1010.196	435.19
1010.482	373.91
1010.768	350.93
1011.054	394.34
1011.339	389.23
1011.625	376.46
1011.911	371.36
1012.196	417.32
1012.482	412.21
1012.767	353.48
1013.052	460.73
1013.338	422.42
1013.623	389.23
1013.908	402
1014.194	350.93
1014.479	399.44
1014.764	396.89
1015.049	312.63
1015.334	361.14
1015.619	407.1
1015.904	389.23
1016.189	307.52
1016.474	386.68
1016.758	402
1017.043	435.19
1017.328	358.59
1017.613	353.48
1017.897	363.7
1018.182	417.32
1018.466	376.46
1018.751	424.98
1019.035	345.82
1019.32	447.96
1019.604	419.87
1019.888	343.27
1020.172	343.27
1020.457	343.27
