Data from 2025-12-03_xpw_interference_micrometer_637_FLMS141361__42__692.txt Node

Date: Wed Dec 03 15:56:09 MST 2025
User: james
Spectrometer: FLMS14136
Trigger mode: 0
Integration Time (sec): 1.000000E-1
Scans to average: 1
Electric dark correction enabled: true
Nonlinearity correction enabled: false
Boxcar width: 0
XAxis mode: Wavelengths
Number of Pixels in Spectrum: 2048
>>>>>Begin Spectral Data<<<<<
339.315	-50.59
339.697	-50.59
340.079	-50.59
340.461	-32.72
340.843	-134.85
341.225	-86.34
341.607	-114.42
341.989	-71.02
342.371	-96.55
342.752	-106.76
343.134	-53.14
343.516	-45.48
343.897	0.48
344.279	-27.61
344.661	74.53
345.042	51.55
345.423	48.99
345.805	77.08
346.186	64.31
346.567	135.81
346.949	148.57
347.33	117.93
347.711	197.09
348.092	253.26
348.473	197.09
348.854	243.05
349.235	299.22
349.616	299.22
349.997	255.82
350.378	294.12
350.758	286.46
351.139	319.65
351.52	294.12
351.9	327.31
352.281	393.7
352.661	373.27
353.042	294.12
353.422	398.81
353.803	393.7
354.183	406.47
354.563	370.72
354.943	342.63
355.324	357.95
355.704	396.25
356.084	409.02
356.464	360.51
356.844	324.76
357.224	393.7
357.603	383.49
357.983	398.81
358.363	488.17
358.743	363.06
359.122	340.08
359.502	370.72
359.882	357.95
360.261	347.74
360.641	396.25
361.02	401.36
361.399	355.4
361.779	363.06
362.158	378.38
362.537	347.74
362.916	340.08
363.296	368.17
363.675	314.54
364.054	291.56
364.433	342.63
364.812	370.72
365.19	368.17
365.569	383.49
365.948	345.18
366.327	314.54
366.705	309.44
367.084	347.74
367.463	289.01
367.841	373.27
368.22	363.06
368.598	329.86
368.977	281.35
369.355	340.08
369.733	375.83
370.111	329.86
370.49	278.8
370.868	355.4
371.246	426.89
371.624	388.59
372.002	324.76
372.38	294.12
372.758	322.2
373.136	291.56
373.513	332.42
373.891	296.67
374.269	342.63
374.646	355.4
375.024	345.18
375.402	263.48
375.779	363.06
376.157	324.76
376.534	322.2
376.911	388.59
377.289	347.74
377.666	375.83
378.043	373.27
378.42	406.47
378.797	337.52
379.175	398.81
379.552	363.06
379.929	340.08
380.305	327.31
380.682	388.59
381.059	383.49
381.436	360.51
381.813	370.72
382.189	403.91
382.566	388.59
382.943	380.93
383.319	386.04
383.696	370.72
384.072	391.15
384.448	378.38
384.825	370.72
385.201	424.34
385.577	355.4
385.953	350.29
386.329	383.49
386.706	375.83
387.082	365.61
387.458	291.56
387.834	360.51
388.209	340.08
388.585	378.38
388.961	373.27
389.337	386.04
389.713	350.29
390.088	370.72
390.464	357.95
390.839	329.86
391.215	296.67
391.59	319.65
391.966	370.72
392.341	378.38
392.716	396.25
393.092	388.59
393.467	375.83
393.842	345.18
394.217	347.74
394.592	388.59
394.967	409.02
395.342	363.06
395.717	357.95
396.092	342.63
396.467	363.06
396.841	383.49
397.216	386.04
397.591	373.27
397.965	360.51
398.34	365.61
398.714	386.04
399.089	378.38
399.463	299.22
399.838	329.86
400.212	337.52
400.586	347.74
400.961	332.42
401.335	421.79
401.709	334.97
402.083	388.59
402.457	388.59
402.831	447.32
403.205	406.47
403.579	403.91
403.953	368.17
404.326	424.34
404.7	409.02
405.074	383.49
405.447	329.86
405.821	378.38
406.195	375.83
406.568	388.59
406.942	432
407.315	411.57
407.688	373.27
408.062	352.84
408.435	388.59
408.808	370.72
409.181	447.32
409.554	391.15
409.927	375.83
410.3	393.7
410.673	411.57
411.046	368.17
411.419	365.61
411.792	444.77
412.165	406.47
412.537	401.36
412.91	383.49
413.283	352.84
413.655	375.83
414.028	429.45
414.4	442.21
414.773	442.21
415.145	360.51
415.517	424.34
415.889	403.91
416.262	406.47
416.634	380.93
417.006	365.61
417.378	350.29
417.75	401.36
418.122	414.13
418.494	340.08
418.866	306.88
419.238	355.4
419.609	360.51
419.981	437.11
420.353	416.68
420.725	393.7
421.096	429.45
421.468	289.01
421.839	465.19
422.211	465.19
422.582	426.89
422.953	403.91
423.325	401.36
423.696	375.83
424.067	375.83
424.438	332.42
424.809	375.83
425.18	340.08
425.551	363.06
425.922	347.74
426.293	432
426.664	388.59
427.035	432
427.406	350.29
427.776	388.59
428.147	416.68
428.518	337.52
428.888	365.61
429.259	406.47
429.629	352.84
429.999	409.02
430.37	373.27
430.74	373.27
431.11	500.94
431.481	375.83
431.851	368.17
432.221	360.51
432.591	416.68
432.961	357.95
433.331	414.13
433.701	347.74
434.071	426.89
434.441	398.81
434.81	363.06
435.18	370.72
435.55	398.81
435.919	388.59
436.289	424.34
436.658	340.08
437.028	375.83
437.397	306.88
437.767	403.91
438.136	396.25
438.505	370.72
438.875	378.38
439.244	378.38
439.613	401.36
439.982	383.49
440.351	350.29
440.72	347.74
441.089	429.45
441.458	396.25
441.827	467.75
442.196	314.54
442.564	475.41
442.933	332.42
443.302	393.7
443.67	439.66
444.039	444.77
444.407	426.89
444.776	319.65
445.144	406.47
445.513	414.13
445.881	365.61
446.249	357.95
446.617	452.43
446.986	383.49
447.354	467.75
447.722	460.09
448.09	414.13
448.458	401.36
448.826	493.28
449.194	454.98
449.561	434.55
449.929	365.61
450.297	396.25
450.665	380.93
451.032	432
451.4	380.93
451.767	434.55
452.135	398.81
452.502	442.21
452.87	432
453.237	472.85
453.604	401.36
453.971	383.49
454.339	406.47
454.706	426.89
455.073	452.43
455.44	437.11
455.807	411.57
456.174	337.52
456.541	434.55
456.908	401.36
457.274	357.95
457.641	386.04
458.008	332.42
458.374	472.85
458.741	406.47
459.108	383.49
459.474	393.7
459.841	426.89
460.207	380.93
460.573	378.38
460.94	355.4
461.306	401.36
461.672	449.87
462.038	375.83
462.404	311.99
462.771	332.42
463.137	406.47
463.503	449.87
463.868	393.7
464.234	391.15
464.6	401.36
464.966	419.23
465.332	429.45
465.697	370.72
466.063	437.11
466.429	421.79
466.794	327.31
467.16	449.87
467.525	416.68
467.89	398.81
468.256	426.89
468.621	332.42
468.986	388.59
469.351	357.95
469.717	368.17
470.082	378.38
470.447	365.61
470.812	393.7
471.177	409.02
471.542	363.06
471.906	378.38
472.271	475.41
472.636	370.72
473.001	383.49
473.365	391.15
473.73	378.38
474.094	437.11
474.459	421.79
474.823	391.15
475.188	406.47
475.552	373.27
475.917	388.59
476.281	447.32
476.645	401.36
477.009	368.17
477.373	304.33
477.737	393.7
478.101	460.09
478.465	375.83
478.829	414.13
479.193	388.59
479.557	493.28
479.921	424.34
480.284	363.06
480.648	396.25
481.012	373.27
481.375	355.4
481.739	380.93
482.102	360.51
482.466	388.59
482.829	452.43
483.193	378.38
483.556	396.25
483.919	462.64
484.282	388.59
484.645	406.47
485.009	368.17
485.372	439.66
485.735	406.47
486.098	357.95
486.46	378.38
486.823	419.23
487.186	449.87
487.549	383.49
487.912	357.95
488.274	352.84
488.637	414.13
488.999	419.23
489.362	391.15
489.724	373.27
490.087	396.25
490.449	386.04
490.811	388.59
491.174	462.64
491.536	396.25
491.898	286.46
492.26	419.23
492.622	398.81
492.984	340.08
493.346	429.45
493.708	470.3
494.07	439.66
494.432	388.59
494.794	406.47
495.155	378.38
495.517	363.06
495.879	347.74
496.24	424.34
496.602	388.59
496.963	398.81
497.325	345.18
497.686	368.17
498.048	416.68
498.409	373.27
498.77	373.27
499.131	383.49
499.492	357.95
499.854	388.59
500.215	472.85
500.576	324.76
500.937	350.29
501.298	398.81
501.658	378.38
502.019	401.36
502.38	388.59
502.741	365.61
503.101	357.95
503.462	403.91
503.823	426.89
504.183	424.34
504.543	424.34
504.904	347.74
505.264	350.29
505.625	398.81
505.985	396.25
506.345	401.36
506.705	332.42
507.065	380.93
507.426	383.49
507.786	373.27
508.146	365.61
508.505	426.89
508.865	391.15
509.225	432
509.585	406.47
509.945	388.59
510.304	388.59
510.664	375.83
511.024	391.15
511.383	414.13
511.743	378.38
512.102	444.77
512.462	409.02
512.821	416.68
513.18	355.4
513.539	383.49
513.899	386.04
514.258	357.95
514.617	352.84
514.976	393.7
515.335	416.68
515.694	368.17
516.053	434.55
516.412	309.44
516.771	426.89
517.129	414.13
517.488	398.81
517.847	360.51
518.205	401.36
518.564	398.81
518.922	442.21
519.281	434.55
519.639	437.11
519.998	457.53
520.356	393.7
520.714	447.32
521.073	411.57
521.431	424.34
521.789	398.81
522.147	426.89
522.505	419.23
522.863	411.57
523.221	437.11
523.579	352.84
523.937	429.45
524.295	393.7
524.652	386.04
525.01	429.45
525.368	340.08
525.725	475.41
526.083	375.83
526.44	429.45
526.798	409.02
527.155	406.47
527.513	416.68
527.87	363.06
528.227	419.23
528.584	398.81
528.942	495.83
529.299	419.23
529.656	386.04
530.013	475.41
530.37	454.98
530.727	452.43
531.083	419.23
531.44	414.13
531.797	391.15
532.154	319.65
532.511	380.93
532.867	429.45
533.224	396.25
533.58	370.72
533.937	386.04
534.293	401.36
534.65	342.63
535.006	388.59
535.362	396.25
535.718	444.77
536.075	375.83
536.431	365.61
536.787	378.38
537.143	419.23
537.499	375.83
537.855	347.74
538.211	424.34
538.567	383.49
538.923	424.34
539.278	409.02
539.634	429.45
539.99	350.29
540.345	396.25
540.701	472.85
541.056	444.77
541.412	388.59
541.767	406.47
542.123	383.49
542.478	386.04
542.833	375.83
543.188	393.7
543.544	388.59
543.899	386.04
544.254	388.59
544.609	444.77
544.964	426.89
545.319	388.59
545.674	449.87
546.029	424.34
546.383	380.93
546.738	414.13
547.093	383.49
547.447	383.49
547.802	457.53
548.157	375.83
548.511	401.36
548.866	375.83
549.22	355.4
549.574	373.27
549.929	409.02
550.283	365.61
550.637	398.81
550.991	409.02
551.345	386.04
551.699	439.66
552.053	393.7
552.407	352.84
552.761	378.38
553.115	429.45
553.469	414.13
553.823	370.72
554.176	380.93
554.53	373.27
554.884	388.59
555.237	651.59
555.591	411.57
555.944	452.43
556.298	406.47
556.651	398.81
557.005	429.45
557.358	365.61
557.711	416.68
558.064	388.59
558.417	383.49
558.771	511.15
559.124	357.95
559.477	388.59
559.83	322.2
560.182	411.57
560.535	460.09
560.888	454.98
561.241	378.38
561.594	391.15
561.946	411.57
562.299	460.09
562.651	411.57
563.004	383.49
563.356	406.47
563.709	442.21
564.061	419.23
564.413	370.72
564.766	401.36
565.118	429.45
565.47	477.96
565.822	337.52
566.174	268.58
566.526	365.61
566.878	398.81
567.23	414.13
567.582	363.06
567.934	442.21
568.286	337.52
568.638	388.59
568.989	442.21
569.341	411.57
569.693	416.68
570.044	409.02
570.396	357.95
570.747	457.53
571.098	457.53
571.45	419.23
571.801	414.13
572.152	383.49
572.504	470.3
572.855	429.45
573.206	444.77
573.557	370.72
573.908	452.43
574.259	480.51
574.61	439.66
574.961	416.68
575.311	452.43
575.662	370.72
576.013	434.55
576.364	363.06
576.714	357.95
577.065	442.21
577.415	426.89
577.766	370.72
578.116	380.93
578.467	449.87
578.817	386.04
579.167	388.59
579.518	442.21
579.868	411.57
580.218	357.95
580.568	424.34
580.918	398.81
581.268	421.79
581.618	432
581.968	403.91
582.318	329.86
582.668	424.34
583.017	472.85
583.367	401.36
583.717	380.93
584.066	447.32
584.416	421.79
584.765	406.47
585.115	319.65
585.464	442.21
585.814	347.74
586.163	304.33
586.512	363.06
586.862	432
587.211	380.93
587.56	393.7
587.909	357.95
588.258	365.61
588.607	401.36
588.956	411.57
589.305	324.76
589.654	383.49
590.002	357.95
590.351	457.53
590.7	447.32
591.048	398.81
591.397	365.61
591.746	434.55
592.094	480.51
592.443	414.13
592.791	393.7
593.139	409.02
593.488	355.4
593.836	383.49
594.184	365.61
594.532	411.57
594.88	393.7
595.228	409.02
595.576	380.93
595.924	434.55
596.272	375.83
596.62	411.57
596.968	378.38
597.316	396.25
597.664	340.08
598.011	388.59
598.359	370.72
598.706	357.95
599.054	388.59
599.402	350.29
599.749	398.81
600.096	401.36
600.444	439.66
600.791	409.02
601.138	370.72
601.485	378.38
601.833	426.89
602.18	403.91
602.527	388.59
602.874	365.61
603.221	388.59
603.568	409.02
603.914	396.25
604.261	449.87
604.608	414.13
604.955	409.02
605.301	409.02
605.648	419.23
605.995	352.84
606.341	370.72
606.688	398.81
607.034	357.95
607.38	388.59
607.727	380.93
608.073	421.79
608.419	409.02
608.765	378.38
609.112	409.02
609.458	345.18
609.804	355.4
610.15	398.81
610.496	409.02
610.842	414.13
611.187	378.38
611.533	388.59
611.879	398.81
612.225	444.77
612.57	447.32
612.916	388.59
613.261	322.2
613.607	414.13
613.952	462.64
614.298	398.81
614.643	393.7
614.989	391.15
615.334	442.21
615.679	391.15
616.024	429.45
616.369	329.86
616.714	401.36
617.059	416.68
617.404	345.18
617.749	347.74
618.094	345.18
618.439	380.93
618.784	419.23
619.129	409.02
619.473	373.27
619.818	424.34
620.163	386.04
620.507	409.02
620.852	439.66
621.196	411.57
621.54	432
621.885	414.13
622.229	429.45
622.573	357.95
622.918	432
623.262	437.11
623.606	421.79
623.95	357.95
624.294	419.23
624.638	416.68
624.982	434.55
625.326	340.08
625.67	409.02
626.013	393.7
626.357	378.38
626.701	447.32
627.044	345.18
627.388	363.06
627.731	416.68
628.075	424.34
628.418	363.06
628.762	352.84
629.105	442.21
629.448	393.7
629.792	350.29
630.135	360.51
630.478	416.68
630.821	416.68
631.164	370.72
631.507	452.43
631.85	406.47
632.193	383.49
632.536	434.55
632.879	432
633.221	365.61
633.564	378.38
633.907	370.72
634.249	488.17
634.592	380.93
634.935	393.7
635.277	388.59
635.619	432
635.962	378.38
636.304	432
636.646	416.68
636.989	409.02
637.331	386.04
637.673	378.38
638.015	391.15
638.357	363.06
638.699	347.74
639.041	434.55
639.383	419.23
639.725	386.04
640.067	406.47
640.408	373.27
640.75	370.72
641.092	383.49
641.433	347.74
641.775	368.17
642.116	421.79
642.458	447.32
642.799	375.83
643.141	409.02
643.482	352.84
643.823	350.29
644.164	393.7
644.506	511.15
644.847	434.55
645.188	416.68
645.529	442.21
645.87	391.15
646.211	347.74
646.552	375.83
646.893	352.84
647.233	426.89
647.574	380.93
647.915	342.63
648.255	403.91
648.596	442.21
648.937	352.84
649.277	380.93
649.618	334.97
649.958	345.18
650.298	355.4
650.639	329.86
650.979	391.15
651.319	383.49
651.659	414.13
651.999	434.55
652.339	386.04
652.679	329.86
653.019	329.86
653.359	345.18
653.699	396.25
654.039	454.98
654.379	406.47
654.719	365.61
655.058	403.91
655.398	398.81
655.737	421.79
656.077	378.38
656.416	368.17
656.756	386.04
657.095	373.27
657.435	391.15
657.774	403.91
658.113	434.55
658.452	444.77
658.792	370.72
659.131	437.11
659.47	324.76
659.809	432
660.148	375.83
660.487	375.83
660.826	337.52
661.164	393.7
661.503	386.04
661.842	419.23
662.181	388.59
662.519	429.45
662.858	365.61
663.196	444.77
663.535	393.7
663.873	347.74
664.212	373.27
664.55	424.34
664.888	401.36
665.226	391.15
665.565	327.31
665.903	631.16
666.241	406.47
666.579	350.29
666.917	411.57
667.255	357.95
667.593	347.74
667.931	357.95
668.268	380.93
668.606	370.72
668.944	419.23
669.282	409.02
669.619	414.13
669.957	447.32
670.294	488.17
670.632	383.49
670.969	393.7
671.307	447.32
671.644	439.66
671.981	419.23
672.318	411.57
672.656	416.68
672.993	454.98
673.33	403.91
673.667	414.13
674.004	401.36
674.341	403.91
674.678	345.18
675.015	350.29
675.351	340.08
675.688	380.93
676.025	340.08
676.362	419.23
676.698	340.08
677.035	386.04
677.371	386.04
677.708	437.11
678.044	388.59
678.38	380.93
678.717	347.74
679.053	424.34
679.389	403.91
679.725	383.49
680.062	365.61
680.398	373.27
680.734	375.83
681.07	370.72
681.406	396.25
681.742	296.67
682.077	421.79
682.413	460.09
682.749	375.83
683.085	342.63
683.42	419.23
683.756	401.36
684.091	388.59
684.427	373.27
684.762	304.33
685.098	403.91
685.433	334.97
685.768	322.2
686.104	314.54
686.439	403.91
686.774	355.4
687.109	414.13
687.444	380.93
687.779	357.95
688.114	380.93
688.449	311.99
688.784	391.15
689.119	334.97
689.454	317.1
689.789	365.61
690.123	355.4
690.458	355.4
690.792	388.59
691.127	373.27
691.461	363.06
691.796	424.34
692.13	373.27
692.465	342.63
692.799	401.36
693.133	370.72
693.467	442.21
693.802	370.72
694.136	329.86
694.47	432
694.804	437.11
695.138	396.25
695.472	426.89
695.806	386.04
696.139	360.51
696.473	393.7
696.807	434.55
697.141	373.27
697.474	521.37
697.808	396.25
698.141	375.83
698.475	319.65
698.808	380.93
699.142	424.34
699.475	368.17
699.808	419.23
700.142	396.25
700.475	437.11
700.808	375.83
701.141	337.52
701.474	449.87
701.807	368.17
702.14	363.06
702.473	434.55
702.806	363.06
703.139	357.95
703.472	383.49
703.804	452.43
704.137	350.29
704.47	386.04
704.802	332.42
705.135	350.29
705.467	380.93
705.8	432
706.132	393.7
706.464	380.93
706.797	329.86
707.129	432
707.461	370.72
707.793	416.68
708.125	488.17
708.457	396.25
708.789	375.83
709.121	406.47
709.453	342.63
709.785	414.13
710.117	342.63
710.449	424.34
710.781	357.95
711.112	375.83
711.444	350.29
711.775	370.72
712.107	345.18
712.438	398.81
712.77	454.98
713.101	365.61
713.433	375.83
713.764	327.31
714.095	439.66
714.426	437.11
714.757	357.95
715.089	393.7
715.42	393.7
715.751	373.27
716.082	347.74
716.412	388.59
716.743	370.72
717.074	442.21
717.405	421.79
717.736	357.95
718.066	454.98
718.397	380.93
718.727	416.68
719.058	350.29
719.388	306.88
719.719	380.93
720.049	386.04
720.38	398.81
720.71	386.04
721.04	373.27
721.37	375.83
721.7	388.59
722.031	378.38
722.361	373.27
722.691	380.93
723.021	373.27
723.35	393.7
723.68	403.91
724.01	426.89
724.34	411.57
724.67	380.93
724.999	462.64
725.329	447.32
725.658	409.02
725.988	396.25
726.317	426.89
726.647	401.36
726.976	434.55
727.306	403.91
727.635	429.45
727.964	434.55
728.293	360.51
728.622	345.18
728.952	437.11
729.281	403.91
729.61	391.15
729.939	411.57
730.267	414.13
730.596	409.02
730.925	365.61
731.254	432
731.583	375.83
731.911	345.18
732.24	342.63
732.568	342.63
732.897	370.72
733.225	383.49
733.554	347.74
733.882	340.08
734.21	360.51
734.539	360.51
734.867	329.86
735.195	368.17
735.523	386.04
735.851	345.18
736.179	442.21
736.507	426.89
736.835	363.06
737.163	311.99
737.491	306.88
737.819	391.15
738.147	393.7
738.474	386.04
738.802	447.32
739.13	368.17
739.457	406.47
739.785	360.51
740.112	311.99
740.44	398.81
740.767	434.55
741.094	409.02
741.422	324.76
741.749	360.51
742.076	409.02
742.403	299.22
742.73	393.7
743.057	383.49
743.384	401.36
743.711	409.02
744.038	350.29
744.365	426.89
744.692	426.89
745.018	447.32
745.345	398.81
745.672	426.89
745.998	414.13
746.325	393.7
746.651	368.17
746.978	393.7
747.304	393.7
747.631	365.61
747.957	386.04
748.283	373.27
748.61	365.61
748.936	386.04
749.262	378.38
749.588	434.55
749.914	345.18
750.24	414.13
750.566	409.02
750.892	373.27
751.218	467.75
751.543	414.13
751.869	416.68
752.195	414.13
752.521	386.04
752.846	357.95
753.172	380.93
753.497	373.27
753.823	345.18
754.148	368.17
754.473	357.95
754.799	386.04
755.124	380.93
755.449	398.81
755.774	347.74
756.1	439.66
756.425	403.91
756.75	350.29
757.075	368.17
757.4	506.05
757.724	393.7
758.049	411.57
758.374	421.79
758.699	403.91
759.024	350.29
759.348	421.79
759.673	442.21
759.997	396.25
760.322	426.89
760.646	380.93
760.971	437.11
761.295	442.21
761.619	444.77
761.944	409.02
762.268	421.79
762.592	429.45
762.916	498.39
763.24	472.85
763.564	495.83
763.888	503.49
764.212	470.3
764.536	490.73
764.86	610.74
765.184	697.55
765.508	866.07
765.831	837.99
766.155	1195.46
766.478	1021.83
766.802	866.07
767.126	720.53
767.449	720.53
767.772	889.05
768.096	1195.46
768.419	1323.13
768.742	1662.73
769.066	1744.44
769.389	1706.14
769.712	1711.24
770.035	1591.23
770.358	1266.95
770.681	1139.29
771.004	1129.07
771.327	1422.71
771.65	1813.38
771.972	2262.77
772.295	2821.96
772.618	3143.69
772.941	3153.9
773.263	2546.2
773.586	2071.27
773.908	1785.29
774.231	1537.61
774.553	1466.12
774.875	1826.14
775.198	2395.55
775.52	3136.03
775.842	3470.52
776.164	3511.37
776.487	3355.62
776.809	2873.03
777.131	2278.09
777.453	1634.64
777.775	1409.94
778.096	1606.55
778.418	2219.36
778.74	2993.04
779.062	4361.65
779.384	5883.46
779.705	6263.92
780.027	5620.46
780.348	4770.19
780.67	3759.05
780.991	2809.19
781.313	2071.27
781.634	2137.66
781.955	2615.14
782.277	3595.63
782.598	4642.52
782.919	5954.96
783.24	6754.16
783.561	6685.22
783.882	6511.59
784.203	5503.01
784.524	3845.87
784.845	2750.47
785.166	2260.22
785.487	2617.69
785.807	3554.78
786.128	4353.99
786.449	5630.68
786.769	7397.61
787.09	8664.09
787.41	8365.35
787.731	6417.12
788.051	4660.39
788.372	3010.91
788.692	2382.78
789.012	2349.59
789.332	3000.7
789.653	4267.17
789.973	5944.74
790.293	7928.72
790.613	9223.28
790.933	10147.6
791.253	9361.16
791.573	7364.42
791.893	5206.82
792.212	3416.9
792.532	2612.58
792.852	2382.78
793.171	2993.04
793.491	4228.87
793.811	5732.81
794.13	7629.97
794.45	8102.35
794.769	7946.59
795.088	7109.08
795.408	5840.05
795.727	4249.3
796.046	2944.52
796.365	2339.37
796.684	2507.9
797.004	3636.49
797.323	5541.31
797.642	7882.76
797.96	10229.31
798.279	11528.98
798.598	11490.68
798.917	10308.47
799.236	7915.95
799.554	5360.02
799.873	3386.26
800.192	2068.71
800.51	1581.02
800.829	1981.9
801.147	2921.54
801.466	3976.09
801.784	5753.24
802.102	6516.7
802.421	6889.49
802.739	6312.43
803.057	5375.34
803.375	4297.81
803.693	3120.71
804.011	2137.66
804.329	1619.32
804.647	1483.99
804.965	1976.79
805.283	2750.47
805.601	4052.69
805.918	5135.32
806.236	5574.5
806.554	5697.07
806.871	5462.15
807.189	4652.73
807.507	3707.98
807.824	2753.02
808.141	1701.03
808.459	1220.99
808.776	1228.65
809.093	1563.15
809.411	1877.21
809.728	2576.84
810.045	3210.07
810.362	3608.4
810.679	3866.29
810.996	3524.14
811.313	2913.88
811.63	2306.18
811.947	1693.37
812.264	1243.97
812.58	1098.43
812.897	1095.88
813.214	1455.9
813.53	1920.62
813.847	2666.21
814.163	3281.57
814.48	3307.1
814.796	3342.85
815.113	3187.09
815.429	2722.38
815.745	1958.92
816.061	1353.77
816.378	993.74
816.694	878.84
817.01	779.26
817.326	955.44
817.642	1223.55
817.958	1535.06
818.274	1981.9
818.59	2209.15
818.905	2122.34
819.221	1976.79
819.537	1821.04
819.852	1384.41
820.168	1044.81
820.484	863.52
820.799	748.62
821.115	753.73
821.43	815.01
821.745	912.03
822.061	1177.59
822.376	1545.27
822.691	1496.76
823.006	1690.82
823.322	1662.73
823.637	1581.02
823.952	1376.75
824.267	1274.61
824.582	1060.13
824.897	797.13
825.211	669.46
825.526	567.33
825.841	577.54
826.156	628.61
826.47	725.64
826.785	871.18
827.1	968.21
827.414	1080.56
827.729	1111.2
828.043	1006.51
828.357	942.68
828.672	837.99
828.986	689.89
829.3	587.76
829.614	467.75
829.929	498.39
830.243	587.76
830.557	626.06
830.871	717.98
831.185	817.56
831.499	940.12
831.812	1019.28
832.126	993.74
832.44	901.82
832.754	853.31
833.067	695
833.381	587.76
833.695	549.46
834.008	483.07
834.322	426.89
834.635	424.34
834.948	462.64
835.262	444.77
835.575	641.38
835.888	664.36
836.201	682.23
836.515	743.51
836.828	717.98
837.141	684.78
837.454	679.68
837.767	628.61
838.08	577.54
838.392	442.21
838.705	444.77
839.018	350.29
839.331	432
839.643	472.85
839.956	523.92
840.269	498.39
840.581	493.28
840.894	493.28
841.206	513.71
841.519	615.84
841.831	439.66
842.143	452.43
842.455	493.28
842.768	370.72
843.08	421.79
843.392	419.23
843.704	472.85
844.016	426.89
844.328	462.64
844.64	498.39
844.952	434.55
845.263	457.53
845.575	480.51
845.887	549.46
846.199	409.02
846.51	457.53
846.822	429.45
847.133	403.91
847.445	429.45
847.756	327.31
848.068	393.7
848.379	429.45
848.69	401.36
849.002	378.38
849.313	388.59
849.624	442.21
849.935	409.02
850.246	370.72
850.557	429.45
850.868	424.34
851.179	411.57
851.49	454.98
851.801	350.29
852.112	393.7
852.422	334.97
852.733	432
853.044	416.68
853.354	375.83
853.665	345.18
853.975	342.63
854.286	386.04
854.596	398.81
854.906	357.95
855.217	368.17
855.527	370.72
855.837	383.49
856.147	388.59
856.458	337.52
856.768	388.59
857.078	370.72
857.388	380.93
857.698	403.91
858.007	388.59
858.317	271.14
858.627	477.96
858.937	355.4
859.246	411.57
859.556	470.3
859.866	350.29
860.175	357.95
860.485	414.13
860.794	391.15
861.104	409.02
861.413	386.04
861.722	434.55
862.032	406.47
862.341	380.93
862.65	363.06
862.959	357.95
863.268	370.72
863.577	403.91
863.886	360.51
864.195	391.15
864.504	373.27
864.813	340.08
865.122	386.04
865.43	421.79
865.739	477.96
866.048	355.4
866.356	365.61
866.665	403.91
866.973	401.36
867.282	342.63
867.59	409.02
867.899	439.66
868.207	421.79
868.515	396.25
868.823	386.04
869.132	383.49
869.44	409.02
869.748	345.18
870.056	368.17
870.364	419.23
870.672	360.51
870.98	357.95
871.288	388.59
871.595	368.17
871.903	322.2
872.211	396.25
872.518	373.27
872.826	388.59
873.134	424.34
873.441	370.72
873.749	383.49
874.056	370.72
874.363	373.27
874.671	340.08
874.978	324.76
875.285	406.47
875.592	416.68
875.9	396.25
876.207	386.04
876.514	439.66
876.821	363.06
877.128	378.38
877.435	322.2
877.741	429.45
878.048	388.59
878.355	370.72
878.662	393.7
878.968	426.89
879.275	322.2
879.582	383.49
879.888	380.93
880.195	386.04
880.501	332.42
880.807	447.32
881.114	396.25
881.42	365.61
881.726	301.78
882.032	350.29
882.339	373.27
882.645	388.59
882.951	347.74
883.257	396.25
883.563	370.72
883.869	406.47
884.174	434.55
884.48	363.06
884.786	409.02
885.092	365.61
885.397	373.27
885.703	365.61
886.009	294.12
886.314	419.23
886.62	332.42
886.925	483.07
887.231	327.31
887.536	414.13
887.841	327.31
888.146	360.51
888.452	360.51
888.757	373.27
889.062	391.15
889.367	322.2
889.672	421.79
889.977	411.57
890.282	391.15
890.587	416.68
890.892	380.93
891.196	345.18
891.501	324.76
891.806	360.51
892.11	337.52
892.415	375.83
892.72	327.31
893.024	363.06
893.328	503.49
893.633	393.7
893.937	378.38
894.242	419.23
894.546	329.86
894.85	432
895.154	457.53
895.458	403.91
895.762	368.17
896.066	355.4
896.37	386.04
896.674	368.17
896.978	345.18
897.282	383.49
897.586	337.52
897.89	414.13
898.193	357.95
898.497	429.45
898.801	406.47
899.104	347.74
899.408	411.57
899.711	424.34
900.014	373.27
900.318	383.49
900.621	424.34
900.924	391.15
901.228	324.76
901.531	421.79
901.834	386.04
902.137	345.18
902.44	421.79
902.743	419.23
903.046	360.51
903.349	347.74
903.652	378.38
903.955	432
904.257	388.59
904.56	411.57
904.863	342.63
905.165	439.66
905.468	411.57
905.77	449.87
906.073	370.72
906.375	411.57
906.678	291.56
906.98	304.33
907.282	409.02
907.584	375.83
907.887	401.36
908.189	334.97
908.491	363.06
908.793	378.38
909.095	409.02
909.397	386.04
909.699	383.49
910.001	442.21
910.302	337.52
910.604	388.59
910.906	368.17
911.208	329.86
911.509	396.25
911.811	388.59
912.112	378.38
912.414	393.7
912.715	411.57
913.017	409.02
913.318	444.77
913.619	373.27
913.92	401.36
914.222	370.72
914.523	352.84
914.824	334.97
915.125	380.93
915.426	421.79
915.727	396.25
916.028	340.08
916.329	332.42
916.63	319.65
916.93	416.68
917.231	373.27
917.532	360.51
917.832	391.15
918.133	406.47
918.434	357.95
918.734	432
919.034	432
919.335	421.79
919.635	398.81
919.935	419.23
920.236	406.47
920.536	329.86
920.836	386.04
921.136	337.52
921.436	434.55
921.736	409.02
922.036	426.89
922.336	398.81
922.636	388.59
922.936	334.97
923.236	414.13
923.535	414.13
923.835	337.52
924.135	429.45
924.434	393.7
924.734	380.93
925.033	380.93
925.333	419.23
925.632	373.27
925.932	411.57
926.231	421.79
926.53	329.86
926.83	424.34
927.129	340.08
927.428	345.18
927.727	355.4
928.026	396.25
928.325	375.83
928.624	365.61
928.923	363.06
929.222	388.59
929.52	368.17
929.819	383.49
930.118	403.91
930.417	334.97
930.715	373.27
931.014	337.52
931.312	401.36
931.611	380.93
931.909	342.63
932.207	386.04
932.506	388.59
932.804	411.57
933.102	365.61
933.401	447.32
933.699	398.81
933.997	393.7
934.295	401.36
934.593	393.7
934.891	347.74
935.189	409.02
935.487	380.93
935.784	437.11
936.082	396.25
936.38	429.45
936.677	454.98
936.975	365.61
937.273	368.17
937.57	373.27
937.868	393.7
938.165	375.83
938.463	301.78
938.76	301.78
939.057	411.57
939.354	365.61
939.652	347.74
939.949	375.83
940.246	391.15
940.543	370.72
940.84	383.49
941.137	403.91
941.434	393.7
941.731	411.57
942.028	386.04
942.324	365.61
942.621	345.18
942.918	329.86
943.214	370.72
943.511	419.23
943.807	439.66
944.104	419.23
944.4	421.79
944.697	447.32
944.993	347.74
945.29	317.1
945.586	383.49
945.882	411.57
946.178	332.42
946.474	383.49
946.77	342.63
947.066	329.86
947.362	401.36
947.658	406.47
947.954	314.54
948.25	375.83
948.546	411.57
948.842	391.15
949.137	373.27
949.433	322.2
949.729	352.84
950.024	396.25
950.32	370.72
950.615	319.65
950.91	299.22
951.206	396.25
951.501	449.87
951.796	319.65
952.092	360.51
952.387	401.36
952.682	434.55
952.977	347.74
953.272	355.4
953.567	386.04
953.862	375.83
954.157	360.51
954.452	403.91
954.747	332.42
955.041	414.13
955.336	393.7
955.631	380.93
955.925	386.04
956.22	345.18
956.514	391.15
956.809	304.33
957.103	406.47
957.398	352.84
957.692	352.84
957.986	380.93
958.281	327.31
958.575	363.06
958.869	391.15
959.163	426.89
959.457	380.93
959.751	424.34
960.045	370.72
960.339	365.61
960.633	342.63
960.927	411.57
961.221	411.57
961.514	365.61
961.808	419.23
962.102	386.04
962.395	340.08
962.689	360.51
962.982	419.23
963.276	368.17
963.569	357.95
963.862	386.04
964.156	350.29
964.449	352.84
964.742	444.77
965.035	388.59
965.328	276.24
965.622	365.61
965.915	406.47
966.208	396.25
966.5	342.63
966.793	322.2
967.086	378.38
967.379	398.81
967.672	363.06
967.964	360.51
968.257	401.36
968.55	383.49
968.842	352.84
969.135	340.08
969.427	345.18
969.72	340.08
970.012	401.36
970.304	406.47
970.597	329.86
970.889	403.91
971.181	340.08
971.473	401.36
971.765	342.63
972.057	360.51
972.349	324.76
972.641	304.33
972.933	380.93
973.225	411.57
973.517	426.89
973.809	403.91
974.1	368.17
974.392	391.15
974.684	401.36
974.975	347.74
975.267	304.33
975.558	419.23
975.85	380.93
976.141	406.47
976.432	337.52
976.724	357.95
977.015	368.17
977.306	283.9
977.597	291.56
977.888	439.66
978.179	357.95
978.47	388.59
978.761	403.91
979.052	391.15
979.343	439.66
979.634	352.84
979.925	419.23
980.215	426.89
980.506	370.72
980.797	383.49
981.087	406.47
981.378	398.81
981.668	363.06
981.959	421.79
982.249	380.93
982.54	306.88
982.83	337.52
983.12	350.29
983.41	386.04
983.701	437.11
983.991	373.27
984.281	327.31
984.571	386.04
984.861	393.7
985.151	383.49
985.441	360.51
985.73	347.74
986.02	327.31
986.31	360.51
986.6	334.97
986.889	447.32
987.179	352.84
987.469	368.17
987.758	360.51
988.048	368.17
988.337	393.7
988.626	319.65
988.916	352.84
989.205	329.86
989.494	429.45
989.783	386.04
990.073	314.54
990.362	365.61
990.651	334.97
990.94	388.59
991.229	419.23
991.518	393.7
991.806	465.19
992.095	383.49
992.384	363.06
992.673	357.95
992.961	314.54
993.25	386.04
993.539	396.25
993.827	426.89
994.116	414.13
994.404	454.98
994.692	383.49
994.981	429.45
995.269	403.91
995.557	365.61
995.846	370.72
996.134	421.79
996.422	454.98
996.71	375.83
996.998	368.17
997.286	365.61
997.574	416.68
997.862	360.51
998.15	322.2
998.437	363.06
998.725	368.17
999.013	403.91
999.3	350.29
999.588	380.93
999.876	334.97
1000.163	327.31
1000.45	370.72
1000.738	360.51
1001.025	411.57
1001.313	363.06
1001.6	347.74
1001.887	421.79
1002.174	360.51
1002.461	396.25
1002.748	370.72
1003.036	383.49
1003.322	299.22
1003.609	421.79
1003.896	378.38
1004.183	370.72
1004.47	350.29
1004.757	421.79
1005.043	370.72
1005.33	409.02
1005.617	365.61
1005.903	370.72
1006.19	411.57
1006.476	309.44
1006.763	378.38
1007.049	363.06
1007.335	360.51
1007.622	375.83
1007.908	432
1008.194	368.17
1008.48	365.61
1008.766	334.97
1009.053	409.02
1009.339	426.89
1009.625	352.84
1009.91	327.31
1010.196	403.91
1010.482	357.95
1010.768	357.95
1011.054	329.86
1011.339	296.67
1011.625	411.57
1011.911	352.84
1012.196	378.38
1012.482	401.36
1012.767	434.55
1013.052	411.57
1013.338	355.4
1013.623	378.38
1013.908	386.04
1014.194	386.04
1014.479	299.22
1014.764	357.95
1015.049	332.42
1015.334	347.74
1015.619	306.88
1015.904	350.29
1016.189	368.17
1016.474	432
1016.758	352.84
1017.043	460.09
1017.328	437.11
1017.613	439.66
1017.897	360.51
1018.182	304.33
1018.466	378.38
1018.751	347.74
1019.035	368.17
1019.32	380.93
1019.604	444.77
1019.888	403.91
1020.172	403.91
1020.457	403.91
