Data from 2025-12-03_xpw_interference_FLMS141361__7__14-33-15-581.txt Node

Date: Wed Dec 03 14:33:15 MST 2025
User: james
Spectrometer: FLMS14136
Trigger mode: 0
Integration Time (sec): 1.000000E-1
Scans to average: 1
Electric dark correction enabled: true
Nonlinearity correction enabled: false
Boxcar width: 0
XAxis mode: Wavelengths
Number of Pixels in Spectrum: 2048
>>>>>Begin Spectral Data<<<<<
339.315	-58.73
339.697	-58.73
340.079	-58.73
340.461	-86.81
340.843	-89.37
341.225	-91.92
341.607	-43.41
341.989	-158.31
342.371	-104.69
342.752	-66.39
343.134	-102.14
343.516	-53.62
343.897	-68.94
344.279	12.77
344.661	7.66
345.042	112.35
345.423	58.73
345.805	71.49
346.186	137.88
346.567	135.33
346.949	153.2
347.33	211.93
347.711	229.8
348.092	237.46
348.473	224.7
348.854	204.27
349.235	206.82
349.616	252.78
349.997	311.51
350.378	347.26
350.758	326.83
351.139	342.15
351.52	319.17
351.9	395.77
352.281	388.11
352.661	362.58
353.042	385.56
353.422	372.79
353.803	431.52
354.183	296.19
354.563	390.67
354.943	329.39
355.324	375.35
355.704	383.01
356.084	377.9
356.464	454.5
356.844	428.97
357.224	390.67
357.603	436.63
357.983	398.33
358.363	462.16
358.743	413.65
359.122	428.97
359.502	354.92
359.882	423.86
360.261	337.05
360.641	329.39
361.02	398.33
361.399	436.63
361.779	390.67
362.158	377.9
362.537	357.47
362.916	347.26
363.296	385.56
363.675	398.33
364.054	337.05
364.433	383.01
364.812	342.15
365.19	329.39
365.569	331.94
365.948	352.37
366.327	395.77
366.705	365.13
367.084	372.79
367.463	365.13
367.841	390.67
368.22	416.2
368.598	314.07
368.977	319.17
369.355	339.6
369.733	388.11
370.111	354.92
370.49	354.92
370.868	357.47
371.246	403.43
371.624	367.69
372.002	416.2
372.38	375.35
372.758	383.01
373.136	349.81
373.513	362.58
373.891	385.56
374.269	365.13
374.646	319.17
375.024	383.01
375.402	303.85
375.779	354.92
376.157	349.81
376.534	352.37
376.911	303.85
377.289	324.28
377.666	329.39
378.043	408.54
378.42	421.31
378.797	390.67
379.175	354.92
379.552	352.37
379.929	326.83
380.305	377.9
380.682	362.58
381.059	380.45
381.436	380.45
381.813	331.94
382.189	423.86
382.566	421.31
382.943	337.05
383.319	362.58
383.696	365.13
384.072	400.88
384.448	377.9
384.825	372.79
385.201	416.2
385.577	390.67
385.953	367.69
386.329	357.47
386.706	380.45
387.082	405.99
387.458	377.9
387.834	316.62
388.209	372.79
388.585	367.69
388.961	334.49
389.337	352.37
389.713	362.58
390.088	344.71
390.464	347.26
390.839	334.49
391.215	329.39
391.59	375.35
391.966	390.67
392.341	352.37
392.716	380.45
393.092	464.71
393.467	360.03
393.842	434.07
394.217	421.31
394.592	296.19
394.967	354.92
395.342	428.97
395.717	375.35
396.092	362.58
396.467	464.71
396.841	436.63
397.216	408.54
397.591	365.13
397.965	370.24
398.34	416.2
398.714	390.67
399.089	372.79
399.463	360.03
399.838	367.69
400.212	380.45
400.586	388.11
400.961	400.88
401.335	367.69
401.709	306.41
402.083	326.83
402.457	408.54
402.831	372.79
403.205	331.94
403.579	362.58
403.953	388.11
404.326	423.86
404.7	431.52
405.074	416.2
405.447	462.16
405.821	393.22
406.195	400.88
406.568	388.11
406.942	431.52
407.315	418.75
407.688	431.52
408.062	372.79
408.435	398.33
408.808	372.79
409.181	352.37
409.554	434.07
409.927	385.56
410.3	372.79
410.673	405.99
411.046	390.67
411.419	390.67
411.792	411.09
412.165	451.95
412.537	375.35
412.91	326.83
413.283	408.54
413.655	428.97
414.028	357.47
414.4	451.95
414.773	362.58
415.145	326.83
415.517	362.58
415.889	311.51
416.262	377.9
416.634	446.84
417.006	377.9
417.378	354.92
417.75	441.73
418.122	362.58
418.494	385.56
418.866	383.01
419.238	390.67
419.609	449.39
419.981	360.03
420.353	405.99
420.725	308.96
421.096	383.01
421.468	454.5
421.839	439.18
422.211	416.2
422.582	383.01
422.953	298.75
423.325	416.2
423.696	388.11
424.067	405.99
424.438	395.77
424.809	403.43
425.18	339.6
425.551	418.75
425.922	441.73
426.293	390.67
426.664	354.92
427.035	469.82
427.406	459.61
427.776	459.61
428.147	428.97
428.518	380.45
428.888	362.58
429.259	418.75
429.629	423.86
429.999	372.79
430.37	362.58
430.74	395.77
431.11	413.65
431.481	436.63
431.851	482.59
432.221	319.17
432.591	395.77
432.961	451.95
433.331	380.45
433.701	337.05
434.071	367.69
434.441	446.84
434.81	459.61
435.18	423.86
435.55	413.65
435.919	377.9
436.289	436.63
436.658	393.22
437.028	380.45
437.397	375.35
437.767	408.54
438.136	395.77
438.505	390.67
438.875	403.43
439.244	426.41
439.613	434.07
439.982	441.73
440.351	408.54
440.72	457.05
441.089	395.77
441.458	436.63
441.827	418.75
442.196	434.07
442.564	492.8
442.933	405.99
443.302	431.52
443.67	383.01
444.039	385.56
444.407	413.65
444.776	385.56
445.144	413.65
445.513	426.41
445.881	441.73
446.249	441.73
446.617	400.88
446.986	431.52
447.354	405.99
447.722	428.97
448.09	398.33
448.458	357.47
448.826	393.22
449.194	421.31
449.561	439.18
449.929	337.05
450.297	393.22
450.665	360.03
451.032	449.39
451.4	480.04
451.767	418.75
452.135	395.77
452.502	480.04
452.87	464.71
453.237	403.43
453.604	372.79
453.971	370.24
454.339	500.46
454.706	400.88
455.073	426.41
455.44	441.73
455.807	362.58
456.174	423.86
456.541	439.18
456.908	431.52
457.274	393.22
457.641	375.35
458.008	523.44
458.374	408.54
458.741	434.07
459.108	416.2
459.474	400.88
459.841	454.5
460.207	428.97
460.573	426.41
460.94	431.52
461.306	464.71
461.672	462.16
462.038	408.54
462.404	380.45
462.771	418.75
463.137	441.73
463.503	413.65
463.868	388.11
464.234	444.29
464.6	474.93
464.966	449.39
465.332	457.05
465.697	418.75
466.063	385.56
466.429	400.88
466.794	372.79
467.16	441.73
467.525	444.29
467.89	375.35
468.256	459.61
468.621	451.95
468.986	398.33
469.351	441.73
469.717	411.09
470.082	423.86
470.447	418.75
470.812	393.22
471.177	423.86
471.542	408.54
471.906	416.2
472.271	377.9
472.636	385.56
473.001	446.84
473.365	393.22
473.73	390.67
474.094	408.54
474.459	503.02
474.823	451.95
475.188	370.24
475.552	418.75
475.917	383.01
476.281	393.22
476.645	398.33
477.009	428.97
477.373	331.94
477.737	354.92
478.101	380.45
478.465	423.86
478.829	469.82
479.193	426.41
479.557	426.41
479.921	434.07
480.284	380.45
480.648	428.97
481.012	446.84
481.375	370.24
481.739	380.45
482.102	428.97
482.466	428.97
482.829	375.35
483.193	423.86
483.556	423.86
483.919	388.11
484.282	459.61
484.645	477.48
485.009	441.73
485.372	405.99
485.735	388.11
486.098	423.86
486.46	436.63
486.823	428.97
487.186	400.88
487.549	383.01
487.912	411.09
488.274	400.88
488.637	459.61
488.999	434.07
489.362	385.56
489.724	444.29
490.087	439.18
490.449	464.71
490.811	462.16
491.174	400.88
491.536	370.24
491.898	449.39
492.26	380.45
492.622	372.79
492.984	413.65
493.346	377.9
493.708	418.75
494.07	408.54
494.432	426.41
494.794	375.35
495.155	377.9
495.517	352.37
495.879	372.79
496.24	426.41
496.602	411.09
496.963	418.75
497.325	431.52
497.686	462.16
498.048	400.88
498.409	434.07
498.77	428.97
499.131	434.07
499.492	428.97
499.854	393.22
500.215	416.2
500.576	398.33
500.937	390.67
501.298	383.01
501.658	421.31
502.019	390.67
502.38	388.11
502.741	388.11
503.101	446.84
503.462	464.71
503.823	434.07
504.183	377.9
504.543	459.61
504.904	360.03
505.264	411.09
505.625	436.63
505.985	464.71
506.345	357.47
506.705	423.86
507.065	377.9
507.426	380.45
507.786	441.73
508.146	413.65
508.505	375.35
508.865	377.9
509.225	423.86
509.585	485.14
509.945	416.2
510.304	370.24
510.664	413.65
511.024	472.37
511.383	400.88
511.743	380.45
512.102	480.04
512.462	411.09
512.821	480.04
513.18	413.65
513.539	377.9
513.899	459.61
514.258	403.43
514.617	444.29
514.976	349.81
515.335	383.01
515.694	398.33
516.053	380.45
516.412	421.31
516.771	454.5
517.129	446.84
517.488	434.07
517.847	347.26
518.205	469.82
518.564	385.56
518.922	421.31
519.281	426.41
519.639	428.97
519.998	444.29
520.356	385.56
520.714	383.01
521.073	431.52
521.431	444.29
521.789	385.56
522.147	436.63
522.505	370.24
522.863	403.43
523.221	405.99
523.579	421.31
523.937	416.2
524.295	469.82
524.652	411.09
525.01	400.88
525.368	480.04
525.725	400.88
526.083	418.75
526.44	474.93
526.798	474.93
527.155	398.33
527.513	398.33
527.87	398.33
528.227	436.63
528.584	441.73
528.942	439.18
529.299	423.86
529.656	393.22
530.013	380.45
530.37	459.61
530.727	434.07
531.083	405.99
531.44	405.99
531.797	413.65
532.154	326.83
532.511	385.56
532.867	421.31
533.224	467.27
533.58	426.41
533.937	444.29
534.293	451.95
534.65	408.54
535.006	416.2
535.362	411.09
535.718	431.52
536.075	377.9
536.431	413.65
536.787	375.35
537.143	423.86
537.499	439.18
537.855	413.65
538.211	431.52
538.567	467.27
538.923	360.03
539.278	428.97
539.634	344.71
539.99	408.54
540.345	446.84
540.701	449.39
541.056	449.39
541.412	385.56
541.767	388.11
542.123	380.45
542.478	418.75
542.833	434.07
543.188	354.92
543.544	393.22
543.899	449.39
544.254	408.54
544.609	349.81
544.964	390.67
545.319	390.67
545.674	454.5
546.029	388.11
546.383	398.33
546.738	398.33
547.093	495.36
547.447	375.35
547.802	413.65
548.157	418.75
548.511	449.39
548.866	467.27
549.22	436.63
549.574	446.84
549.929	393.22
550.283	459.61
550.637	482.59
550.991	441.73
551.345	411.09
551.699	441.73
552.053	428.97
552.407	398.33
552.761	434.07
553.115	454.5
553.469	459.61
553.823	372.79
554.176	372.79
554.53	349.81
554.884	390.67
555.237	541.32
555.591	482.59
555.944	513.23
556.298	428.97
556.651	393.22
557.005	428.97
557.358	459.61
557.711	403.43
558.064	418.75
558.417	441.73
558.771	541.32
559.124	434.07
559.477	426.41
559.83	393.22
560.182	393.22
560.535	490.25
560.888	441.73
561.241	375.35
561.594	385.56
561.946	405.99
562.299	372.79
562.651	347.26
563.004	400.88
563.356	467.27
563.709	477.48
564.061	477.48
564.413	418.75
564.766	383.01
565.118	395.77
565.47	405.99
565.822	354.92
566.174	372.79
566.526	360.03
566.878	400.88
567.23	370.24
567.582	421.31
567.934	467.27
568.286	439.18
568.638	408.54
568.989	444.29
569.341	449.39
569.693	441.73
570.044	434.07
570.396	439.18
570.747	380.45
571.098	403.43
571.45	367.69
571.801	390.67
572.152	418.75
572.504	393.22
572.855	385.56
573.206	469.82
573.557	464.71
573.908	444.29
574.259	441.73
574.61	431.52
574.961	377.9
575.311	395.77
575.662	441.73
576.013	444.29
576.364	444.29
576.714	444.29
577.065	365.13
577.415	423.86
577.766	405.99
578.116	457.05
578.467	446.84
578.817	416.2
579.167	365.13
579.518	375.35
579.868	451.95
580.218	411.09
580.568	370.24
580.918	405.99
581.268	375.35
581.618	383.01
581.968	403.43
582.318	459.61
582.668	462.16
583.017	421.31
583.367	436.63
583.717	411.09
584.066	393.22
584.416	388.11
584.765	413.65
585.115	405.99
585.464	474.93
585.814	426.41
586.163	383.01
586.512	446.84
586.862	354.92
587.211	426.41
587.56	411.09
587.909	400.88
588.258	441.73
588.607	441.73
588.956	421.31
589.305	449.39
589.654	423.86
590.002	428.97
590.351	388.11
590.7	459.61
591.048	388.11
591.397	344.71
591.746	439.18
592.094	357.47
592.443	449.39
592.791	403.43
593.139	431.52
593.488	434.07
593.836	393.22
594.184	423.86
594.532	385.56
594.88	464.71
595.228	421.31
595.576	390.67
595.924	441.73
596.272	375.35
596.62	385.56
596.968	403.43
597.316	408.54
597.664	413.65
598.011	344.71
598.359	421.31
598.706	416.2
599.054	388.11
599.402	314.07
599.749	426.41
600.096	388.11
600.444	492.8
600.791	423.86
601.138	411.09
601.485	344.71
601.833	428.97
602.18	372.79
602.527	405.99
602.874	459.61
603.221	421.31
603.568	388.11
603.914	390.67
604.261	441.73
604.608	398.33
604.955	408.54
605.301	372.79
605.648	393.22
605.995	454.5
606.341	352.37
606.688	388.11
607.034	431.52
607.38	416.2
607.727	365.13
608.073	339.6
608.419	434.07
608.765	454.5
609.112	462.16
609.458	400.88
609.804	439.18
610.15	457.05
610.496	436.63
610.842	337.05
611.187	377.9
611.533	403.43
611.879	375.35
612.225	426.41
612.57	474.93
612.916	377.9
613.261	441.73
613.607	421.31
613.952	375.35
614.298	441.73
614.643	428.97
614.989	423.86
615.334	408.54
615.679	446.84
616.024	403.43
616.369	393.22
616.714	446.84
617.059	459.61
617.404	421.31
617.749	431.52
618.094	421.31
618.439	436.63
618.784	428.97
619.129	372.79
619.473	377.9
619.818	449.39
620.163	405.99
620.507	439.18
620.852	370.24
621.196	439.18
621.54	469.82
621.885	405.99
622.229	383.01
622.573	403.43
622.918	454.5
623.262	357.47
623.606	405.99
623.95	431.52
624.294	426.41
624.638	411.09
624.982	367.69
625.326	462.16
625.67	403.43
626.013	349.81
626.357	352.37
626.701	408.54
627.044	398.33
627.388	405.99
627.731	454.5
628.075	457.05
628.418	362.58
628.762	418.75
629.105	405.99
629.448	482.59
629.792	492.8
630.135	451.95
630.478	383.01
630.821	431.52
631.164	362.58
631.507	428.97
631.85	480.04
632.193	462.16
632.536	413.65
632.879	360.03
633.221	398.33
633.564	372.79
633.907	398.33
634.249	411.09
634.592	423.86
634.935	423.86
635.277	380.45
635.619	408.54
635.962	444.29
636.304	431.52
636.646	487.7
636.989	490.25
637.331	423.86
637.673	441.73
638.015	367.69
638.357	385.56
638.699	439.18
639.041	431.52
639.383	454.5
639.725	428.97
640.067	370.24
640.408	505.57
640.75	383.01
641.092	416.2
641.433	403.43
641.775	434.07
642.116	426.41
642.458	390.67
642.799	487.7
643.141	492.8
643.482	426.41
643.823	446.84
644.164	347.26
644.506	472.37
644.847	418.75
645.188	441.73
645.529	375.35
645.87	454.5
646.211	464.71
646.552	423.86
646.893	474.93
647.233	426.41
647.574	395.77
647.915	354.92
648.255	421.31
648.596	441.73
648.937	426.41
649.277	467.27
649.618	508.12
649.958	408.54
650.298	423.86
650.639	411.09
650.979	441.73
651.319	436.63
651.659	362.58
651.999	421.31
652.339	388.11
652.679	393.22
653.019	400.88
653.359	400.88
653.699	459.61
654.039	444.29
654.379	426.41
654.719	372.79
655.058	393.22
655.398	403.43
655.737	503.02
656.077	482.59
656.416	436.63
656.756	441.73
657.095	370.24
657.435	398.33
657.774	413.65
658.113	319.17
658.452	383.01
658.792	444.29
659.131	449.39
659.47	365.13
659.809	398.33
660.148	354.92
660.487	426.41
660.826	372.79
661.164	339.6
661.503	296.19
661.842	421.31
662.181	390.67
662.519	385.56
662.858	474.93
663.196	377.9
663.535	408.54
663.873	423.86
664.212	375.35
664.55	457.05
664.888	428.97
665.226	449.39
665.565	385.56
665.903	543.87
666.241	487.7
666.579	444.29
666.917	444.29
667.255	411.09
667.593	377.9
667.931	436.63
668.268	411.09
668.606	421.31
668.944	408.54
669.282	439.18
669.619	375.35
669.957	459.61
670.294	398.33
670.632	362.58
670.969	326.83
671.307	375.35
671.644	418.75
671.981	428.97
672.318	441.73
672.656	439.18
672.993	436.63
673.33	434.07
673.667	449.39
674.004	434.07
674.341	377.9
674.678	380.45
675.015	431.52
675.351	352.37
675.688	375.35
676.025	383.01
676.362	469.82
676.698	444.29
677.035	451.95
677.371	395.77
677.708	395.77
678.044	362.58
678.38	395.77
678.717	459.61
679.053	421.31
679.389	416.2
679.725	360.03
680.062	436.63
680.398	398.33
680.734	408.54
681.07	436.63
681.406	454.5
681.742	360.03
682.077	383.01
682.413	347.26
682.749	400.88
683.085	360.03
683.42	459.61
683.756	421.31
684.091	393.22
684.427	398.33
684.762	377.9
685.098	413.65
685.433	469.82
685.768	416.2
686.104	408.54
686.439	408.54
686.774	457.05
687.109	434.07
687.444	400.88
687.779	439.18
688.114	413.65
688.449	365.13
688.784	441.73
689.119	434.07
689.454	393.22
689.789	451.95
690.123	426.41
690.458	439.18
690.792	375.35
691.127	426.41
691.461	388.11
691.796	426.41
692.13	444.29
692.465	416.2
692.799	405.99
693.133	377.9
693.467	421.31
693.802	436.63
694.136	324.28
694.47	411.09
694.804	393.22
695.138	459.61
695.472	446.84
695.806	421.31
696.139	383.01
696.473	334.49
696.807	372.79
697.141	426.41
697.474	454.5
697.808	411.09
698.141	431.52
698.475	416.2
698.808	375.35
699.142	436.63
699.475	434.07
699.808	459.61
700.142	426.41
700.475	370.24
700.808	390.67
701.141	416.2
701.474	428.97
701.807	446.84
702.14	423.86
702.473	408.54
702.806	472.37
703.139	388.11
703.472	421.31
703.804	426.41
704.137	408.54
704.47	383.01
704.802	372.79
705.135	388.11
705.467	349.81
705.8	383.01
706.132	360.03
706.464	431.52
706.797	423.86
707.129	449.39
707.461	416.2
707.793	408.54
708.125	403.43
708.457	395.77
708.789	352.37
709.121	380.45
709.453	383.01
709.785	334.49
710.117	370.24
710.449	339.6
710.781	383.01
711.112	421.31
711.444	477.48
711.775	408.54
712.107	444.29
712.438	375.35
712.77	408.54
713.101	426.41
713.433	434.07
713.764	344.71
714.095	426.41
714.426	423.86
714.757	431.52
715.089	370.24
715.42	400.88
715.751	365.13
716.082	492.8
716.412	449.39
716.743	362.58
717.074	434.07
717.405	467.27
717.736	377.9
718.066	434.07
718.397	426.41
718.727	441.73
719.058	349.81
719.388	367.69
719.719	365.13
720.049	405.99
720.38	423.86
720.71	393.22
721.04	388.11
721.37	395.77
721.7	416.2
722.031	380.45
722.361	462.16
722.691	428.97
723.021	360.03
723.35	375.35
723.68	362.58
724.01	413.65
724.34	418.75
724.67	398.33
724.999	349.81
725.329	436.63
725.658	426.41
725.988	413.65
726.317	418.75
726.647	418.75
726.976	380.45
727.306	441.73
727.635	400.88
727.964	342.15
728.293	449.39
728.622	393.22
728.952	393.22
729.281	423.86
729.61	441.73
729.939	480.04
730.267	385.56
730.596	370.24
730.925	370.24
731.254	388.11
731.583	418.75
731.911	421.31
732.24	439.18
732.568	469.82
732.897	367.69
733.225	428.97
733.554	388.11
733.882	357.47
734.21	398.33
734.539	454.5
734.867	413.65
735.195	285.98
735.523	413.65
735.851	357.47
736.179	324.28
736.507	421.31
736.835	408.54
737.163	390.67
737.491	352.37
737.819	354.92
738.147	444.29
738.474	449.39
738.802	444.29
739.13	416.2
739.457	416.2
739.785	426.41
740.112	383.01
740.44	457.05
740.767	395.77
741.094	416.2
741.422	385.56
741.749	431.52
742.076	421.31
742.403	416.2
742.73	426.41
743.057	370.24
743.384	377.9
743.711	449.39
744.038	395.77
744.365	472.37
744.692	428.97
745.018	418.75
745.345	428.97
745.672	441.73
745.998	403.43
746.325	413.65
746.651	388.11
746.978	403.43
747.304	352.37
747.631	395.77
747.957	385.56
748.283	331.94
748.61	365.13
748.936	370.24
749.262	370.24
749.588	354.92
749.914	380.45
750.24	416.2
750.566	326.83
750.892	428.97
751.218	400.88
751.543	383.01
751.869	395.77
752.195	459.61
752.521	372.79
752.846	403.43
753.172	370.24
753.497	380.45
753.823	342.15
754.148	446.84
754.473	405.99
754.799	449.39
755.124	434.07
755.449	385.56
755.774	385.56
756.1	411.09
756.425	377.9
756.75	426.41
757.075	416.2
757.4	380.45
757.724	439.18
758.049	362.58
758.374	421.31
758.699	462.16
759.024	469.82
759.348	342.15
759.673	395.77
759.997	362.58
760.322	362.58
760.646	418.75
760.971	405.99
761.295	400.88
761.619	400.88
761.944	472.37
762.268	485.14
762.592	487.7
762.916	418.75
763.24	398.33
763.564	398.33
763.888	487.7
764.212	492.8
764.536	495.36
764.86	520.89
765.184	495.36
765.508	487.7
765.831	587.28
766.155	686.86
766.478	623.02
766.802	594.94
767.126	676.65
767.449	651.11
767.772	714.95
768.096	689.41
768.419	663.88
768.742	750.69
769.066	840.06
769.389	827.29
769.712	819.63
770.035	811.97
770.358	850.27
770.681	970.28
771.004	1051.99
771.327	1138.81
771.65	1238.39
771.972	1246.05
772.295	1286.9
772.618	1281.8
772.941	1320.1
773.263	1276.69
773.586	1297.12
773.908	1368.61
774.231	1386.48
774.553	1389.04
774.875	1404.36
775.198	1378.82
775.52	1389.04
775.842	1381.38
776.164	1521.81
776.487	1600.97
776.809	1695.44
777.131	1634.16
777.453	1680.12
777.775	1618.84
778.096	1708.21
778.418	1838.43
778.74	1782.26
779.062	1754.17
779.384	1953.33
779.705	2155.05
780.027	2211.23
780.348	2213.78
780.67	2269.95
780.991	2435.92
781.313	2369.53
781.634	2366.98
781.955	2290.38
782.277	2338.89
782.598	2356.77
782.919	2624.87
783.24	2571.25
783.561	2461.46
783.882	2405.28
784.203	2561.04
784.524	2772.97
784.845	2801.06
785.166	2864.89
785.487	2790.84
785.807	2734.67
786.128	2729.56
786.449	2681.05
786.769	2760.2
787.09	2762.76
787.41	2811.27
787.731	2936.38
788.051	2969.58
788.372	2961.92
788.692	3178.96
789.012	3370.46
789.332	3786.66
789.653	3888.79
789.973	3814.75
790.293	3656.44
790.613	3441.95
790.933	3485.36
791.253	3602.82
791.573	3658.99
791.893	3493.02
792.212	3079.37
792.532	2808.72
792.852	2760.2
793.171	2655.51
793.491	2706.58
793.811	2658.07
794.13	2553.38
794.45	2461.46
794.769	2543.16
795.088	2926.17
795.408	3028.31
795.727	3247.9
796.046	3350.03
796.365	3411.31
796.684	3270.88
797.004	3250.45
797.323	3237.68
797.642	3360.25
797.96	3247.9
798.279	3268.32
798.598	3028.31
798.917	2864.89
799.236	2813.82
799.554	2844.46
799.873	2803.61
800.192	2811.27
800.51	2816.38
800.829	2857.23
801.147	2734.67
801.466	2561.04
801.784	2497.2
802.102	2474.22
802.421	2392.52
802.739	2407.84
803.057	2433.37
803.375	2402.73
803.693	2119.3
804.011	2190.8
804.329	2183.14
804.647	2170.37
804.965	2109.09
805.283	2101.43
805.601	2157.6
805.918	2075.9
806.236	2157.6
806.554	2336.34
806.871	2509.97
807.189	2318.47
807.507	2252.08
807.824	2201.01
808.141	2045.26
808.459	2009.51
808.776	1894.61
809.093	1820.56
809.411	1769.49
809.728	1710.76
810.045	1600.97
810.362	1580.54
810.679	1598.41
810.996	1440.11
811.313	1544.79
811.63	1366.06
811.947	1355.84
812.264	1386.48
812.58	1307.33
812.897	1501.39
813.214	1575.43
813.53	1514.15
813.847	1524.37
814.163	1435
814.48	1455.43
814.796	1475.85
815.113	1455.43
815.429	1383.93
815.745	1427.34
816.061	1355.84
816.378	1289.46
816.694	1263.92
817.01	1330.31
817.326	1309.88
817.642	1100.51
817.958	1133.7
818.274	1136.25
818.59	1128.59
818.905	1062.21
819.221	931.98
819.537	939.64
819.852	919.22
820.168	952.41
820.484	944.75
820.799	954.96
821.115	970.28
821.43	929.43
821.745	1000.92
822.061	886.02
822.376	896.24
822.691	863.04
823.006	781.33
823.322	827.29
823.637	916.66
823.952	829.85
824.267	753.25
824.582	753.25
824.897	730.27
825.211	886.02
825.526	801.76
825.841	783.89
826.156	732.82
826.47	788.99
826.785	753.25
827.1	732.82
827.414	635.79
827.729	686.86
828.043	668.99
828.357	605.15
828.672	625.58
828.986	633.24
829.3	633.24
829.614	686.86
829.929	740.48
830.243	694.52
830.557	648.56
830.871	674.09
831.185	592.38
831.499	508.12
831.812	663.88
832.126	610.26
832.44	607.7
832.754	607.7
833.067	579.62
833.381	561.74
833.695	548.98
834.008	467.27
834.322	457.05
834.635	492.8
834.948	495.36
835.262	446.84
835.575	508.12
835.888	482.59
836.201	536.21
836.515	487.7
836.828	482.59
837.141	467.27
837.454	531.1
837.767	513.23
838.08	477.48
838.392	474.93
838.705	446.84
839.018	520.89
839.331	464.71
839.643	482.59
839.956	405.99
840.269	462.16
840.581	393.22
840.894	405.99
841.206	459.61
841.519	543.87
841.831	434.07
842.143	385.56
842.455	339.6
842.768	388.11
843.08	444.29
843.392	487.7
843.704	426.41
844.016	464.71
844.328	469.82
844.64	497.91
844.952	426.41
845.263	411.09
845.575	380.45
845.887	439.18
846.199	405.99
846.51	472.37
846.822	469.82
847.133	357.47
847.445	398.33
847.756	375.35
848.068	362.58
848.379	388.11
848.69	413.65
849.002	418.75
849.313	385.56
849.624	400.88
849.935	413.65
850.246	370.24
850.557	388.11
850.868	426.41
851.179	418.75
851.49	385.56
851.801	423.86
852.112	413.65
852.422	400.88
852.733	398.33
853.044	441.73
853.354	375.35
853.665	426.41
853.975	367.69
854.286	331.94
854.596	337.05
854.906	400.88
855.217	385.56
855.527	423.86
855.837	451.95
856.147	439.18
856.458	357.47
856.768	390.67
857.078	339.6
857.388	383.01
857.698	403.43
858.007	434.07
858.317	418.75
858.627	362.58
858.937	421.31
859.246	441.73
859.556	441.73
859.866	408.54
860.175	380.45
860.485	357.47
860.794	311.51
861.104	403.43
861.413	408.54
861.722	383.01
862.032	362.58
862.341	411.09
862.65	395.77
862.959	459.61
863.268	349.81
863.577	395.77
863.886	342.15
864.195	349.81
864.504	377.9
864.813	388.11
865.122	431.52
865.43	446.84
865.739	377.9
866.048	383.01
866.356	367.69
866.665	423.86
866.973	416.2
867.282	393.22
867.59	390.67
867.899	377.9
868.207	395.77
868.515	405.99
868.823	405.99
869.132	352.37
869.44	280.87
869.748	339.6
870.056	385.56
870.364	354.92
870.672	329.39
870.98	446.84
871.288	357.47
871.595	360.03
871.903	477.48
872.211	439.18
872.518	436.63
872.826	439.18
873.134	367.69
873.441	370.24
873.749	301.3
874.056	329.39
874.363	398.33
874.671	357.47
874.978	444.29
875.285	380.45
875.592	428.97
875.9	393.22
876.207	383.01
876.514	431.52
876.821	444.29
877.128	372.79
877.435	385.56
877.741	416.2
878.048	418.75
878.355	354.92
878.662	395.77
878.968	405.99
879.275	339.6
879.582	377.9
879.888	344.71
880.195	308.96
880.501	360.03
880.807	362.58
881.114	403.43
881.42	411.09
881.726	418.75
882.032	485.14
882.339	375.35
882.645	426.41
882.951	480.04
883.257	403.43
883.563	385.56
883.869	385.56
884.174	411.09
884.48	372.79
884.786	370.24
885.092	324.28
885.397	446.84
885.703	367.69
886.009	339.6
886.314	388.11
886.62	405.99
886.925	385.56
887.231	372.79
887.536	423.86
887.841	347.26
888.146	416.2
888.452	441.73
888.757	436.63
889.062	390.67
889.367	388.11
889.672	329.39
889.977	321.73
890.282	436.63
890.587	418.75
890.892	408.54
891.196	383.01
891.501	451.95
891.806	380.45
892.11	403.43
892.415	372.79
892.72	390.67
893.024	408.54
893.328	520.89
893.633	400.88
893.937	411.09
894.242	362.58
894.546	428.97
894.85	403.43
895.154	347.26
895.458	367.69
895.762	400.88
896.066	403.43
896.37	370.24
896.674	377.9
896.978	408.54
897.282	372.79
897.586	462.16
897.89	474.93
898.193	362.58
898.497	372.79
898.801	334.49
899.104	408.54
899.408	446.84
899.711	462.16
900.014	431.52
900.318	436.63
900.621	383.01
900.924	370.24
901.228	362.58
901.531	439.18
901.834	390.67
902.137	446.84
902.44	439.18
902.743	411.09
903.046	362.58
903.349	403.43
903.652	451.95
903.955	398.33
904.257	372.79
904.56	441.73
904.863	395.77
905.165	388.11
905.468	434.07
905.77	492.8
906.073	423.86
906.375	441.73
906.678	383.01
906.98	385.56
907.282	408.54
907.584	395.77
907.887	383.01
908.189	492.8
908.491	344.71
908.793	423.86
909.095	375.35
909.397	436.63
909.699	464.71
910.001	431.52
910.302	344.71
910.604	380.45
910.906	344.71
911.208	426.41
911.509	428.97
911.811	421.31
912.112	449.39
912.414	441.73
912.715	390.67
913.017	367.69
913.318	377.9
913.619	362.58
913.92	342.15
914.222	362.58
914.523	393.22
914.824	372.79
915.125	426.41
915.426	426.41
915.727	421.31
916.028	385.56
916.329	436.63
916.63	390.67
916.93	385.56
917.231	428.97
917.532	441.73
917.832	365.13
918.133	434.07
918.434	441.73
918.734	408.54
919.034	403.43
919.335	385.56
919.635	365.13
919.935	434.07
920.236	449.39
920.536	411.09
920.836	370.24
921.136	354.92
921.436	497.91
921.736	485.14
922.036	383.01
922.336	367.69
922.636	365.13
922.936	365.13
923.236	385.56
923.535	375.35
923.835	418.75
924.135	375.35
924.434	426.41
924.734	339.6
925.033	283.42
925.333	418.75
925.632	385.56
925.932	431.52
926.231	428.97
926.53	385.56
926.83	337.05
927.129	339.6
927.428	306.41
927.727	377.9
928.026	390.67
928.325	428.97
928.624	413.65
928.923	326.83
929.222	423.86
929.52	423.86
929.819	408.54
930.118	334.49
930.417	428.97
930.715	426.41
931.014	426.41
931.312	342.15
931.611	385.56
931.909	357.47
932.207	411.09
932.506	400.88
932.804	426.41
933.102	365.13
933.401	383.01
933.699	362.58
933.997	428.97
934.295	375.35
934.593	375.35
934.891	395.77
935.189	370.24
935.487	362.58
935.784	421.31
936.082	457.05
936.38	436.63
936.677	383.01
936.975	349.81
937.273	357.47
937.57	334.49
937.868	360.03
938.165	365.13
938.463	459.61
938.76	337.05
939.057	349.81
939.354	357.47
939.652	400.88
939.949	367.69
940.246	413.65
940.543	357.47
940.84	331.94
941.137	342.15
941.434	388.11
941.731	370.24
942.028	321.73
942.324	308.96
942.621	400.88
942.918	311.51
943.214	449.39
943.511	319.17
943.807	347.26
944.104	352.37
944.4	385.56
944.697	377.9
944.993	337.05
945.29	372.79
945.586	400.88
945.882	395.77
946.178	423.86
946.474	383.01
946.77	339.6
947.066	403.43
947.362	441.73
947.658	436.63
947.954	436.63
948.25	357.47
948.546	375.35
948.842	362.58
949.137	375.35
949.433	416.2
949.729	444.29
950.024	354.92
950.32	451.95
950.615	319.17
950.91	411.09
951.206	405.99
951.501	370.24
951.796	393.22
952.092	423.86
952.387	439.18
952.682	395.77
952.977	418.75
953.272	411.09
953.567	497.91
953.862	449.39
954.157	421.31
954.452	413.65
954.747	383.01
955.041	395.77
955.336	372.79
955.631	377.9
955.925	436.63
956.22	375.35
956.514	416.2
956.809	390.67
957.103	357.47
957.398	380.45
957.692	462.16
957.986	426.41
958.281	418.75
958.575	383.01
958.869	454.5
959.163	403.43
959.457	431.52
959.751	362.58
960.045	252.78
960.339	395.77
960.633	314.07
960.927	413.65
961.221	431.52
961.514	431.52
961.808	457.05
962.102	390.67
962.395	385.56
962.689	352.37
962.982	388.11
963.276	400.88
963.569	347.26
963.862	462.16
964.156	405.99
964.449	367.69
964.742	444.29
965.035	428.97
965.328	393.22
965.622	411.09
965.915	398.33
966.208	405.99
966.5	434.07
966.793	339.6
967.086	393.22
967.379	393.22
967.672	370.24
967.964	370.24
968.257	434.07
968.55	426.41
968.842	370.24
969.135	403.43
969.427	352.37
969.72	360.03
970.012	421.31
970.304	423.86
970.597	390.67
970.889	446.84
971.181	337.05
971.473	449.39
971.765	380.45
972.057	367.69
972.349	385.56
972.641	372.79
972.933	296.19
973.225	403.43
973.517	413.65
973.809	365.13
974.1	385.56
974.392	326.83
974.684	334.49
974.975	319.17
975.267	324.28
975.558	395.77
975.85	434.07
976.141	395.77
976.432	480.04
976.724	436.63
977.015	365.13
977.306	390.67
977.597	370.24
977.888	362.58
978.179	431.52
978.47	354.92
978.761	398.33
979.052	377.9
979.343	334.49
979.634	352.37
979.925	385.56
980.215	398.33
980.506	403.43
980.797	451.95
981.087	477.48
981.378	390.67
981.668	306.41
981.959	426.41
982.249	439.18
982.54	426.41
982.83	398.33
983.12	383.01
983.41	365.13
983.701	331.94
983.991	411.09
984.281	413.65
984.571	446.84
984.861	400.88
985.151	421.31
985.441	342.15
985.73	385.56
986.02	349.81
986.31	428.97
986.6	439.18
986.889	405.99
987.179	370.24
987.469	285.98
987.758	377.9
988.048	372.79
988.337	395.77
988.626	413.65
988.916	337.05
989.205	439.18
989.494	421.31
989.783	385.56
990.073	411.09
990.362	357.47
990.651	362.58
990.94	393.22
991.229	365.13
991.518	408.54
991.806	434.07
992.095	380.45
992.384	385.56
992.673	349.81
992.961	337.05
993.25	411.09
993.539	383.01
993.827	385.56
994.116	357.47
994.404	439.18
994.692	367.69
994.981	400.88
995.269	400.88
995.557	377.9
995.846	367.69
996.134	367.69
996.422	413.65
996.71	434.07
996.998	372.79
997.286	347.26
997.574	408.54
997.862	390.67
998.15	426.41
998.437	441.73
998.725	418.75
999.013	367.69
999.3	362.58
999.588	370.24
999.876	388.11
1000.163	418.75
1000.45	372.79
1000.738	411.09
1001.025	377.9
1001.313	444.29
1001.6	372.79
1001.887	385.56
1002.174	413.65
1002.461	403.43
1002.748	360.03
1003.036	380.45
1003.322	400.88
1003.609	390.67
1003.896	380.45
1004.183	418.75
1004.47	377.9
1004.757	434.07
1005.043	393.22
1005.33	357.47
1005.617	367.69
1005.903	393.22
1006.19	365.13
1006.476	431.52
1006.763	367.69
1007.049	362.58
1007.335	314.07
1007.622	365.13
1007.908	398.33
1008.194	428.97
1008.48	385.56
1008.766	385.56
1009.053	451.95
1009.339	357.47
1009.625	388.11
1009.91	344.71
1010.196	385.56
1010.482	372.79
1010.768	372.79
1011.054	316.62
1011.339	319.17
1011.625	365.13
1011.911	370.24
1012.196	375.35
1012.482	377.9
1012.767	444.29
1013.052	380.45
1013.338	403.43
1013.623	451.95
1013.908	398.33
1014.194	411.09
1014.479	428.97
1014.764	314.07
1015.049	357.47
1015.334	342.15
1015.619	367.69
1015.904	459.61
1016.189	360.03
1016.474	398.33
1016.758	431.52
1017.043	423.86
1017.328	377.9
1017.613	418.75
1017.897	403.43
1018.182	372.79
1018.466	380.45
1018.751	357.47
1019.035	377.9
1019.32	421.31
1019.604	370.24
1019.888	357.47
1020.172	357.47
1020.457	357.47
