Data from 2025-12-03_xpw_interference_micrometer_634_reference_FLMS141361__170__420.txt Node

Date: Wed Dec 03 15:51:29 MST 2025
User: james
Spectrometer: FLMS14136
Trigger mode: 0
Integration Time (sec): 1.000000E-1
Scans to average: 1
Electric dark correction enabled: true
Nonlinearity correction enabled: false
Boxcar width: 0
XAxis mode: Wavelengths
Number of Pixels in Spectrum: 2048
>>>>>Begin Spectral Data<<<<<
339.315	-3.51
339.697	-3.51
340.079	-3.51
340.461	-120.97
340.843	-31.6
341.225	-69.9
341.607	-143.95
341.989	-154.16
342.371	-77.56
342.752	-44.36
343.134	-82.67
343.516	-44.36
343.897	-34.15
344.279	4.15
344.661	57.77
345.042	47.56
345.423	88.41
345.805	37.34
346.186	142.03
346.567	129.26
346.949	144.59
347.33	185.44
347.711	205.87
348.092	221.19
348.473	256.93
348.854	285.02
349.235	203.31
349.616	249.27
349.997	282.47
350.378	351.41
350.758	328.43
351.139	338.64
351.52	351.41
351.9	364.18
352.281	361.62
352.661	336.09
353.042	412.69
353.422	453.54
353.803	496.95
354.183	361.62
354.563	522.48
354.943	361.62
355.324	387.16
355.704	353.96
356.084	428.01
356.464	417.8
356.844	382.05
357.224	415.24
357.603	348.86
357.983	410.14
358.363	450.99
358.743	376.94
359.122	389.71
359.502	417.8
359.882	382.05
360.261	428.01
360.641	430.56
361.02	387.16
361.399	415.24
361.779	382.05
362.158	359.07
362.537	382.05
362.916	399.92
363.296	364.18
363.675	407.58
364.054	336.09
364.433	397.37
364.812	371.84
365.19	343.75
365.569	338.64
365.948	323.32
366.327	328.43
366.705	397.37
367.084	313.11
367.463	310.55
367.841	323.32
368.22	366.73
368.598	343.75
368.977	364.18
369.355	315.66
369.733	359.07
370.111	379.5
370.49	333.54
370.868	364.18
371.246	328.43
371.624	356.52
372.002	366.73
372.38	343.75
372.758	389.71
373.136	295.23
373.513	369.28
373.891	343.75
374.269	374.39
374.646	417.8
375.024	343.75
375.402	382.05
375.779	348.86
376.157	399.92
376.534	348.86
376.911	374.39
377.289	382.05
377.666	361.62
378.043	387.16
378.42	376.94
378.797	308
379.175	489.29
379.552	351.41
379.929	410.14
380.305	389.71
380.682	428.01
381.059	353.96
381.436	371.84
381.813	325.87
382.189	428.01
382.566	369.28
382.943	323.32
383.319	330.98
383.696	343.75
384.072	415.24
384.448	417.8
384.825	399.92
385.201	366.73
385.577	410.14
385.953	359.07
386.329	420.35
386.706	366.73
387.082	348.86
387.458	412.69
387.834	366.73
388.209	361.62
388.585	323.32
388.961	397.37
389.337	387.16
389.713	359.07
390.088	402.48
390.464	369.28
390.839	348.86
391.215	430.56
391.59	438.22
391.966	428.01
392.341	371.84
392.716	397.37
393.092	366.73
393.467	440.78
393.842	415.24
394.217	392.26
394.592	425.46
394.967	364.18
395.342	351.41
395.717	359.07
396.092	453.54
396.467	348.86
396.841	415.24
397.216	422.9
397.591	417.8
397.965	407.58
398.34	407.58
398.714	343.75
399.089	279.91
399.463	348.86
399.838	353.96
400.212	384.6
400.586	369.28
400.961	392.26
401.335	422.9
401.709	430.56
402.083	369.28
402.457	428.01
402.831	397.37
403.205	412.69
403.579	361.62
403.953	407.58
404.326	343.75
404.7	461.2
405.074	356.52
405.447	330.98
405.821	384.6
406.195	369.28
406.568	305.45
406.942	461.2
407.315	356.52
407.688	425.46
408.062	392.26
408.435	405.03
408.808	382.05
409.181	394.82
409.554	405.03
409.927	433.12
410.3	420.35
410.673	397.37
411.046	374.39
411.419	369.28
411.792	356.52
412.165	361.62
412.537	405.03
412.91	440.78
413.283	433.12
413.655	384.6
414.028	397.37
414.4	364.18
414.773	417.8
415.145	407.58
415.517	364.18
415.889	379.5
416.262	410.14
416.634	369.28
417.006	353.96
417.378	374.39
417.75	330.98
418.122	371.84
418.494	417.8
418.866	440.78
419.238	415.24
419.609	351.41
419.981	351.41
420.353	364.18
420.725	387.16
421.096	394.82
421.468	443.33
421.839	535.25
422.211	415.24
422.582	405.03
422.953	450.99
423.325	412.69
423.696	392.26
424.067	435.67
424.438	374.39
424.809	489.29
425.18	407.58
425.551	448.44
425.922	410.14
426.293	456.1
426.664	430.56
427.035	502.06
427.406	394.82
427.776	376.94
428.147	410.14
428.518	412.69
428.888	407.58
429.259	374.39
429.629	445.88
429.999	417.8
430.37	443.33
430.74	384.6
431.11	389.71
431.481	445.88
431.851	435.67
432.221	366.73
432.591	394.82
432.961	458.65
433.331	369.28
433.701	461.2
434.071	394.82
434.441	430.56
434.81	415.24
435.18	371.84
435.55	330.98
435.919	353.96
436.289	412.69
436.658	405.03
437.028	422.9
437.397	397.37
437.767	466.31
438.136	392.26
438.505	445.88
438.875	463.76
439.244	394.82
439.613	415.24
439.982	412.69
440.351	425.46
440.72	433.12
441.089	450.99
441.458	445.88
441.827	428.01
442.196	461.2
442.564	514.82
442.933	417.8
443.302	394.82
443.67	338.64
444.039	473.97
444.407	392.26
444.776	394.82
445.144	374.39
445.513	387.16
445.881	412.69
446.249	433.12
446.617	471.42
446.986	405.03
447.354	364.18
447.722	402.48
448.09	453.54
448.458	412.69
448.826	476.52
449.194	450.99
449.561	330.98
449.929	428.01
450.297	433.12
450.665	384.6
451.032	382.05
451.4	397.37
451.767	430.56
452.135	366.73
452.502	374.39
452.87	448.44
453.237	415.24
453.604	376.94
453.971	405.03
454.339	384.6
454.706	394.82
455.073	374.39
455.44	415.24
455.807	410.14
456.174	353.96
456.541	415.24
456.908	466.31
457.274	359.07
457.641	422.9
458.008	481.63
458.374	471.42
458.741	466.31
459.108	448.44
459.474	417.8
459.841	407.58
460.207	387.16
460.573	389.71
460.94	394.82
461.306	430.56
461.672	389.71
462.038	399.92
462.404	361.62
462.771	399.92
463.137	422.9
463.503	433.12
463.868	407.58
464.234	453.54
464.6	371.84
464.966	387.16
465.332	397.37
465.697	415.24
466.063	397.37
466.429	361.62
466.794	415.24
467.16	364.18
467.525	384.6
467.89	379.5
468.256	433.12
468.621	435.67
468.986	450.99
469.351	384.6
469.717	382.05
470.082	397.37
470.447	420.35
470.812	382.05
471.177	410.14
471.542	371.84
471.906	405.03
472.271	473.97
472.636	443.33
473.001	412.69
473.365	438.22
473.73	425.46
474.094	443.33
474.459	448.44
474.823	371.84
475.188	420.35
475.552	374.39
475.917	376.94
476.281	415.24
476.645	433.12
477.009	463.76
477.373	374.39
477.737	435.67
478.101	394.82
478.465	366.73
478.829	341.2
479.193	374.39
479.557	410.14
479.921	364.18
480.284	379.5
480.648	392.26
481.012	415.24
481.375	428.01
481.739	415.24
482.102	463.76
482.466	514.82
482.829	466.31
483.193	410.14
483.556	389.71
483.919	458.65
484.282	387.16
484.645	374.39
485.009	397.37
485.372	392.26
485.735	384.6
486.098	476.52
486.46	450.99
486.823	496.95
487.186	392.26
487.549	435.67
487.912	384.6
488.274	468.86
488.637	430.56
488.999	422.9
489.362	415.24
489.724	466.31
490.087	435.67
490.449	407.58
490.811	453.54
491.174	430.56
491.536	389.71
491.898	420.35
492.26	456.1
492.622	407.58
492.984	453.54
493.346	428.01
493.708	463.76
494.07	359.07
494.432	450.99
494.794	412.69
495.155	394.82
495.517	356.52
495.879	392.26
496.24	356.52
496.602	376.94
496.963	425.46
497.325	369.28
497.686	407.58
498.048	405.03
498.409	481.63
498.77	425.46
499.131	499.5
499.492	476.52
499.854	399.92
500.215	458.65
500.576	456.1
500.937	389.71
501.298	420.35
501.658	336.09
502.019	399.92
502.38	435.67
502.741	453.54
503.101	397.37
503.462	405.03
503.823	422.9
504.183	461.2
504.543	433.12
504.904	435.67
505.264	394.82
505.625	473.97
505.985	463.76
506.345	453.54
506.705	410.14
507.065	410.14
507.426	438.22
507.786	448.44
508.146	433.12
508.505	412.69
508.865	453.54
509.225	405.03
509.585	450.99
509.945	392.26
510.304	468.86
510.664	417.8
511.024	353.96
511.383	412.69
511.743	443.33
512.102	456.1
512.462	435.67
512.821	456.1
513.18	366.73
513.539	412.69
513.899	394.82
514.258	445.88
514.617	461.2
514.976	471.42
515.335	417.8
515.694	415.24
516.053	440.78
516.412	397.37
516.771	417.8
517.129	425.46
517.488	389.71
517.847	392.26
518.205	359.07
518.564	384.6
518.922	415.24
519.281	376.94
519.639	387.16
519.998	433.12
520.356	415.24
520.714	445.88
521.073	471.42
521.431	353.96
521.789	392.26
522.147	461.2
522.505	461.2
522.863	489.29
523.221	389.71
523.579	438.22
523.937	433.12
524.295	351.41
524.652	450.99
525.01	397.37
525.368	425.46
525.725	407.58
526.083	397.37
526.44	417.8
526.798	394.82
527.155	364.18
527.513	461.2
527.87	384.6
528.227	440.78
528.584	379.5
528.942	379.5
529.299	453.54
529.656	405.03
530.013	371.84
530.37	448.44
530.727	479.08
531.083	422.9
531.44	364.18
531.797	417.8
532.154	430.56
532.511	374.39
532.867	428.01
533.224	445.88
533.58	405.03
533.937	402.48
534.293	430.56
534.65	389.71
535.006	389.71
535.362	415.24
535.718	422.9
536.075	376.94
536.431	463.76
536.787	458.65
537.143	430.56
537.499	346.3
537.855	389.71
538.211	448.44
538.567	379.5
538.923	443.33
539.278	420.35
539.634	412.69
539.99	420.35
540.345	422.9
540.701	402.48
541.056	458.65
541.412	392.26
541.767	438.22
542.123	397.37
542.478	407.58
542.833	369.28
543.188	397.37
543.544	410.14
543.899	435.67
544.254	415.24
544.609	407.58
544.964	374.39
545.319	438.22
545.674	435.67
546.029	425.46
546.383	394.82
546.738	359.07
547.093	343.75
547.447	461.2
547.802	389.71
548.157	369.28
548.511	382.05
548.866	374.39
549.22	433.12
549.574	366.73
549.929	463.76
550.283	397.37
550.637	394.82
550.991	473.97
551.345	374.39
551.699	387.16
552.053	450.99
552.407	353.96
552.761	433.12
553.115	369.28
553.469	420.35
553.823	422.9
554.176	430.56
554.53	489.29
554.884	392.26
555.237	693.56
555.591	514.82
555.944	458.65
556.298	461.2
556.651	428.01
557.005	491.84
557.358	448.44
557.711	384.6
558.064	458.65
558.417	359.07
558.771	514.82
559.124	491.84
559.477	420.35
559.83	440.78
560.182	443.33
560.535	397.37
560.888	412.69
561.241	448.44
561.594	412.69
561.946	473.97
562.299	435.67
562.651	422.9
563.004	445.88
563.356	448.44
563.709	428.01
564.061	394.82
564.413	428.01
564.766	364.18
565.118	405.03
565.47	369.28
565.822	405.03
566.174	435.67
566.526	384.6
566.878	425.46
567.23	402.48
567.582	359.07
567.934	379.5
568.286	456.1
568.638	399.92
568.989	448.44
569.341	366.73
569.693	382.05
570.044	420.35
570.396	422.9
570.747	394.82
571.098	440.78
571.45	417.8
571.801	402.48
572.152	330.98
572.504	461.2
572.855	361.62
573.206	353.96
573.557	463.76
573.908	402.48
574.259	448.44
574.61	412.69
574.961	425.46
575.311	407.58
575.662	458.65
576.013	425.46
576.364	422.9
576.714	445.88
577.065	430.56
577.415	461.2
577.766	415.24
578.116	387.16
578.467	343.75
578.817	402.48
579.167	417.8
579.518	435.67
579.868	369.28
580.218	405.03
580.568	433.12
580.918	405.03
581.268	328.43
581.618	433.12
581.968	359.07
582.318	402.48
582.668	466.31
583.017	412.69
583.367	428.01
583.717	433.12
584.066	479.08
584.416	440.78
584.765	387.16
585.115	389.71
585.464	433.12
585.814	364.18
586.163	428.01
586.512	394.82
586.862	453.54
587.211	412.69
587.56	461.2
587.909	471.42
588.258	456.1
588.607	397.37
588.956	448.44
589.305	371.84
589.654	376.94
590.002	491.84
590.351	415.24
590.7	420.35
591.048	448.44
591.397	425.46
591.746	417.8
592.094	456.1
592.443	407.58
592.791	405.03
593.139	430.56
593.488	461.2
593.836	425.46
594.184	445.88
594.532	374.39
594.88	448.44
595.228	387.16
595.576	379.5
595.924	394.82
596.272	374.39
596.62	364.18
596.968	435.67
597.316	422.9
597.664	415.24
598.011	394.82
598.359	374.39
598.706	405.03
599.054	473.97
599.402	425.46
599.749	369.28
600.096	440.78
600.444	399.92
600.791	417.8
601.138	425.46
601.485	422.9
601.833	438.22
602.18	448.44
602.527	440.78
602.874	440.78
603.221	397.37
603.568	399.92
603.914	450.99
604.261	397.37
604.608	341.2
604.955	374.39
605.301	402.48
605.648	473.97
605.995	435.67
606.341	392.26
606.688	415.24
607.034	392.26
607.38	407.58
607.727	348.86
608.073	428.01
608.419	445.88
608.765	387.16
609.112	410.14
609.458	402.48
609.804	420.35
610.15	389.71
610.496	353.96
610.842	382.05
611.187	412.69
611.533	422.9
611.879	412.69
612.225	399.92
612.57	407.58
612.916	489.29
613.261	402.48
613.607	453.54
613.952	473.97
614.298	456.1
614.643	435.67
614.989	468.86
615.334	458.65
615.679	428.01
616.024	420.35
616.369	405.03
616.714	456.1
617.059	435.67
617.404	405.03
617.749	320.77
618.094	435.67
618.439	389.71
618.784	420.35
619.129	374.39
619.473	361.62
619.818	399.92
620.163	366.73
620.507	417.8
620.852	410.14
621.196	489.29
621.54	509.72
621.885	486.74
622.229	456.1
622.573	458.65
622.918	399.92
623.262	379.5
623.606	445.88
623.95	389.71
624.294	420.35
624.638	417.8
624.982	371.84
625.326	384.6
625.67	341.2
626.013	366.73
626.357	440.78
626.701	433.12
627.044	420.35
627.388	392.26
627.731	410.14
628.075	407.58
628.418	484.18
628.762	433.12
629.105	422.9
629.448	387.16
629.792	399.92
630.135	371.84
630.478	305.45
630.821	366.73
631.164	399.92
631.507	422.9
631.85	361.62
632.193	338.64
632.536	399.92
632.879	428.01
633.221	438.22
633.564	366.73
633.907	346.3
634.249	422.9
634.592	425.46
634.935	461.2
635.277	430.56
635.619	415.24
635.962	422.9
636.304	379.5
636.646	397.37
636.989	448.44
637.331	440.78
637.673	361.62
638.015	382.05
638.357	435.67
638.699	359.07
639.041	428.01
639.383	458.65
639.725	412.69
640.067	440.78
640.408	376.94
640.75	425.46
641.092	435.67
641.433	433.12
641.775	397.37
642.116	369.28
642.458	466.31
642.799	430.56
643.141	382.05
643.482	369.28
643.823	382.05
644.164	481.63
644.506	448.44
644.847	422.9
645.188	428.01
645.529	458.65
645.87	397.37
646.211	450.99
646.552	448.44
646.893	420.35
647.233	410.14
647.574	353.96
647.915	371.84
648.255	333.54
648.596	458.65
648.937	458.65
649.277	379.5
649.618	407.58
649.958	456.1
650.298	456.1
650.639	440.78
650.979	397.37
651.319	420.35
651.659	328.43
651.999	405.03
652.339	412.69
652.679	415.24
653.019	402.48
653.359	397.37
653.699	343.75
654.039	392.26
654.379	374.39
654.719	422.9
655.058	359.07
655.398	440.78
655.737	417.8
656.077	461.2
656.416	407.58
656.756	468.86
657.095	433.12
657.435	348.86
657.774	438.22
658.113	425.46
658.452	379.5
658.792	387.16
659.131	412.69
659.47	399.92
659.809	440.78
660.148	376.94
660.487	445.88
660.826	336.09
661.164	443.33
661.503	382.05
661.842	440.78
662.181	394.82
662.519	420.35
662.858	387.16
663.196	479.08
663.535	453.54
663.873	343.75
664.212	443.33
664.55	430.56
664.888	425.46
665.226	443.33
665.565	394.82
665.903	535.25
666.241	371.84
666.579	364.18
666.917	504.61
667.255	394.82
667.593	397.37
667.931	428.01
668.268	415.24
668.606	397.37
668.944	364.18
669.282	456.1
669.619	415.24
669.957	389.71
670.294	415.24
670.632	430.56
670.969	369.28
671.307	379.5
671.644	376.94
671.981	410.14
672.318	371.84
672.656	392.26
672.993	397.37
673.33	394.82
673.667	453.54
674.004	433.12
674.341	463.76
674.678	456.1
675.015	461.2
675.351	376.94
675.688	422.9
676.025	382.05
676.362	389.71
676.698	422.9
677.035	399.92
677.371	417.8
677.708	412.69
678.044	407.58
678.38	433.12
678.717	397.37
679.053	425.46
679.389	361.62
679.725	410.14
680.062	448.44
680.398	425.46
680.734	394.82
681.07	453.54
681.406	428.01
681.742	415.24
682.077	415.24
682.413	399.92
682.749	387.16
683.085	323.32
683.42	348.86
683.756	394.82
684.091	443.33
684.427	430.56
684.762	364.18
685.098	382.05
685.433	394.82
685.768	417.8
686.104	397.37
686.439	430.56
686.774	371.84
687.109	384.6
687.444	399.92
687.779	435.67
688.114	366.73
688.449	417.8
688.784	430.56
689.119	402.48
689.454	353.96
689.789	425.46
690.123	369.28
690.458	392.26
690.792	443.33
691.127	420.35
691.461	384.6
691.796	422.9
692.13	382.05
692.465	392.26
692.799	387.16
693.133	440.78
693.467	438.22
693.802	417.8
694.136	407.58
694.47	461.2
694.804	443.33
695.138	435.67
695.472	420.35
695.806	456.1
696.139	458.65
696.473	468.86
696.807	379.5
697.141	448.44
697.474	420.35
697.808	394.82
698.141	405.03
698.475	443.33
698.808	466.31
699.142	351.41
699.475	410.14
699.808	394.82
700.142	438.22
700.475	430.56
700.808	458.65
701.141	433.12
701.474	466.31
701.807	486.74
702.14	376.94
702.473	379.5
702.806	341.2
703.139	394.82
703.472	471.42
703.804	394.82
704.137	417.8
704.47	371.84
704.802	333.54
705.135	387.16
705.467	471.42
705.8	461.2
706.132	433.12
706.464	425.46
706.797	348.86
707.129	422.9
707.461	397.37
707.793	443.33
708.125	389.71
708.457	366.73
708.789	346.3
709.121	379.5
709.453	366.73
709.785	489.29
710.117	394.82
710.449	410.14
710.781	422.9
711.112	343.75
711.444	399.92
711.775	420.35
712.107	453.54
712.438	433.12
712.77	440.78
713.101	417.8
713.433	356.52
713.764	366.73
714.095	433.12
714.426	453.54
714.757	389.71
715.089	420.35
715.42	450.99
715.751	422.9
716.082	366.73
716.412	392.26
716.743	361.62
717.074	351.41
717.405	407.58
717.736	364.18
718.066	407.58
718.397	463.76
718.727	351.41
719.058	379.5
719.388	405.03
719.719	399.92
720.049	371.84
720.38	376.94
720.71	407.58
721.04	374.39
721.37	346.3
721.7	428.01
722.031	405.03
722.361	450.99
722.691	379.5
723.021	389.71
723.35	323.32
723.68	369.28
724.01	433.12
724.34	387.16
724.67	530.15
724.999	435.67
725.329	458.65
725.658	376.94
725.988	415.24
726.317	384.6
726.647	394.82
726.976	399.92
727.306	389.71
727.635	420.35
727.964	394.82
728.293	343.75
728.622	443.33
728.952	341.2
729.281	392.26
729.61	456.1
729.939	415.24
730.267	458.65
730.596	417.8
730.925	382.05
731.254	410.14
731.583	389.71
731.911	425.46
732.24	384.6
732.568	402.48
732.897	382.05
733.225	371.84
733.554	389.71
733.882	359.07
734.21	336.09
734.539	387.16
734.867	387.16
735.195	366.73
735.523	428.01
735.851	379.5
736.179	435.67
736.507	456.1
736.835	384.6
737.163	466.31
737.491	376.94
737.819	420.35
738.147	415.24
738.474	405.03
738.802	405.03
739.13	456.1
739.457	397.37
739.785	399.92
740.112	425.46
740.44	384.6
740.767	379.5
741.094	399.92
741.422	376.94
741.749	374.39
742.076	384.6
742.403	422.9
742.73	382.05
743.057	415.24
743.384	420.35
743.711	379.5
744.038	407.58
744.365	433.12
744.692	481.63
745.018	417.8
745.345	402.48
745.672	471.42
745.998	356.52
746.325	433.12
746.651	359.07
746.978	428.01
747.304	382.05
747.631	379.5
747.957	382.05
748.283	438.22
748.61	359.07
748.936	397.37
749.262	428.01
749.588	366.73
749.914	384.6
750.24	443.33
750.566	450.99
750.892	420.35
751.218	389.71
751.543	461.2
751.869	392.26
752.195	402.48
752.521	392.26
752.846	412.69
753.172	402.48
753.497	433.12
753.823	443.33
754.148	422.9
754.473	402.48
754.799	382.05
755.124	325.87
755.449	417.8
755.774	351.41
756.1	397.37
756.425	422.9
756.75	445.88
757.075	471.42
757.4	550.57
757.724	435.67
758.049	346.3
758.374	399.92
758.699	371.84
759.024	389.71
759.348	420.35
759.673	420.35
759.997	422.9
760.322	392.26
760.646	402.48
760.971	433.12
761.295	412.69
761.619	422.9
761.944	392.26
762.268	468.86
762.592	438.22
762.916	453.54
763.24	494.4
763.564	458.65
763.888	507.16
764.212	548.02
764.536	550.57
764.86	606.75
765.184	537.81
765.508	558.23
765.831	691.01
766.155	915.71
766.478	749.74
766.802	706.33
767.126	777.82
767.449	879.96
767.772	1022.95
768.096	984.65
768.419	882.51
768.742	984.65
769.066	964.22
769.389	1010.18
769.712	1081.67
770.035	1045.93
770.358	1132.74
770.681	1260.41
771.004	1283.39
771.327	1303.82
771.65	1239.98
771.972	1344.67
772.295	1423.83
772.618	1441.7
772.941	1426.38
773.263	1485.11
773.586	1497.88
773.908	1674.06
774.231	1735.34
774.553	1809.39
774.875	1954.93
775.198	2013.66
775.52	2003.44
775.842	1727.68
776.164	1801.73
776.487	1878.33
776.809	1949.82
777.131	2046.85
777.453	1965.14
777.775	2011.1
778.096	2069.83
778.418	2054.51
778.74	2046.85
779.062	2128.56
779.384	2233.25
779.705	2503.91
780.027	2731.16
780.348	2720.94
780.67	2593.27
780.991	2789.88
781.313	3063.1
781.634	3175.44
781.955	3001.82
782.277	2805.2
782.598	2843.51
782.919	2820.53
783.24	2851.17
783.561	2907.34
783.882	2866.49
784.203	2945.64
784.524	2889.47
784.845	2874.15
785.166	2621.36
785.487	2636.68
785.807	2674.98
786.128	2600.93
786.449	2501.35
786.769	2585.61
787.09	2782.22
787.41	2948.19
787.731	3183.1
788.051	3382.27
788.372	3502.28
788.692	3772.94
789.012	3744.85
789.332	3852.09
789.653	3982.31
789.973	4102.32
790.293	3818.9
790.613	3499.72
790.933	3389.93
791.253	3178
791.573	2973.73
791.893	2978.83
792.212	2825.63
792.532	2703.07
792.852	2644.34
793.171	2526.89
793.491	2498.8
793.811	2509.01
794.13	2447.73
794.45	2493.69
794.769	2399.22
795.088	2810.31
795.408	2820.53
795.727	2835.85
796.046	2797.54
796.365	2743.92
796.684	2511.57
797.004	2465.61
797.323	2539.65
797.642	2820.53
797.96	2830.74
798.279	2948.19
798.598	2756.69
798.917	2606.04
799.236	2450.29
799.554	2297.08
799.873	2177.07
800.192	2192.39
800.51	2302.19
800.829	2248.57
801.147	2171.97
801.466	2041.74
801.784	1983.02
802.102	2000.89
802.421	2159.2
802.739	2207.71
803.057	2161.75
803.375	1929.4
803.693	1880.88
804.011	2072.39
804.329	2179.63
804.647	2151.54
804.965	2064.73
805.283	1965.14
805.601	1885.99
805.918	1863.01
806.236	1778.75
806.554	1781.3
806.871	1679.17
807.189	1962.59
807.507	1929.4
807.824	1903.86
808.141	1689.38
808.459	1480
808.776	1372.76
809.093	1186.36
809.411	1163.38
809.728	1148.06
810.045	1206.79
810.362	1142.96
810.679	1260.41
810.996	1186.36
811.313	1214.45
811.63	1265.52
811.947	1293.61
812.264	1270.62
812.58	1188.92
812.897	1155.72
813.214	1176.15
813.53	1140.4
813.847	1199.13
814.163	1229.77
814.48	1183.81
814.796	1158.28
815.113	1227.22
815.429	1117.42
815.745	1086.78
816.061	1125.08
816.378	994.86
816.694	1025.5
817.01	943.79
817.326	1035.71
817.642	1056.14
817.958	964.22
818.274	759.95
818.59	897.83
818.905	724.2
819.221	816.12
819.537	836.55
819.852	795.7
820.168	757.4
820.484	854.42
820.799	788.04
821.115	777.82
821.43	910.6
821.745	872.3
822.061	757.4
822.376	734.42
822.691	770.16
823.006	739.52
823.322	657.81
823.637	678.24
823.952	726.76
824.267	616.96
824.582	647.6
824.897	606.75
825.211	688.45
825.526	622.07
825.841	611.85
826.156	591.43
826.47	606.75
826.785	616.96
827.1	517.38
827.414	604.19
827.729	517.38
828.043	606.75
828.357	530.15
828.672	573.55
828.986	586.32
829.3	558.23
829.614	535.25
829.929	532.7
830.243	550.57
830.557	545.47
830.871	553.13
831.185	555.68
831.499	504.61
831.812	532.7
832.126	545.47
832.44	519.93
832.754	581.21
833.067	611.85
833.381	560.79
833.695	530.15
834.008	502.06
834.322	481.63
834.635	476.52
834.948	425.46
835.262	466.31
835.575	468.86
835.888	453.54
836.201	389.71
836.515	399.92
836.828	481.63
837.141	410.14
837.454	453.54
837.767	433.12
838.08	448.44
838.392	412.69
838.705	443.33
839.018	473.97
839.331	407.58
839.643	405.03
839.956	417.8
840.269	412.69
840.581	392.26
840.894	445.88
841.206	405.03
841.519	604.19
841.831	509.72
842.143	356.52
842.455	410.14
842.768	466.31
843.08	417.8
843.392	425.46
843.704	461.2
844.016	422.9
844.328	410.14
844.64	471.42
844.952	364.18
845.263	473.97
845.575	371.84
845.887	376.94
846.199	448.44
846.51	374.39
846.822	397.37
847.133	397.37
847.445	364.18
847.756	389.71
848.068	374.39
848.379	440.78
848.69	369.28
849.002	399.92
849.313	392.26
849.624	359.07
849.935	371.84
850.246	387.16
850.557	438.22
850.868	448.44
851.179	356.52
851.49	412.69
851.801	374.39
852.112	348.86
852.422	410.14
852.733	420.35
853.044	407.58
853.354	405.03
853.665	382.05
853.975	402.48
854.286	371.84
854.596	394.82
854.906	420.35
855.217	366.73
855.527	422.9
855.837	407.58
856.147	430.56
856.458	382.05
856.768	389.71
857.078	397.37
857.388	374.39
857.698	417.8
858.007	382.05
858.317	366.73
858.627	450.99
858.937	435.67
859.246	399.92
859.556	407.58
859.866	415.24
860.175	407.58
860.485	430.56
860.794	376.94
861.104	374.39
861.413	405.03
861.722	359.07
862.032	407.58
862.341	394.82
862.65	333.54
862.959	486.74
863.268	412.69
863.577	476.52
863.886	353.96
864.195	353.96
864.504	364.18
864.813	356.52
865.122	420.35
865.43	364.18
865.739	333.54
866.048	384.6
866.356	425.46
866.665	382.05
866.973	435.67
867.282	394.82
867.59	410.14
867.899	308
868.207	458.65
868.515	384.6
868.823	430.56
869.132	361.62
869.44	448.44
869.748	450.99
870.056	364.18
870.364	341.2
870.672	453.54
870.98	435.67
871.288	392.26
871.595	359.07
871.903	417.8
872.211	351.41
872.518	359.07
872.826	397.37
873.134	422.9
873.441	425.46
873.749	473.97
874.056	443.33
874.363	420.35
874.671	397.37
874.978	430.56
875.285	417.8
875.592	443.33
875.9	438.22
876.207	379.5
876.514	351.41
876.821	394.82
877.128	336.09
877.435	379.5
877.741	371.84
878.048	341.2
878.355	481.63
878.662	369.28
878.968	382.05
879.275	392.26
879.582	402.48
879.888	392.26
880.195	356.52
880.501	458.65
880.807	412.69
881.114	397.37
881.42	387.16
881.726	389.71
882.032	364.18
882.339	366.73
882.645	364.18
882.951	353.96
883.257	412.69
883.563	379.5
883.869	343.75
884.174	399.92
884.48	425.46
884.786	346.3
885.092	361.62
885.397	450.99
885.703	422.9
886.009	430.56
886.314	379.5
886.62	320.77
886.925	376.94
887.231	387.16
887.536	422.9
887.841	402.48
888.146	433.12
888.452	440.78
888.757	410.14
889.062	402.48
889.367	428.01
889.672	412.69
889.977	387.16
890.282	387.16
890.587	351.41
890.892	389.71
891.196	397.37
891.501	359.07
891.806	450.99
892.11	417.8
892.415	387.16
892.72	348.86
893.024	422.9
893.328	463.76
893.633	323.32
893.937	353.96
894.242	392.26
894.546	376.94
894.85	407.58
895.154	440.78
895.458	410.14
895.762	330.98
896.066	405.03
896.37	399.92
896.674	366.73
896.978	402.48
897.282	422.9
897.586	394.82
897.89	433.12
898.193	348.86
898.497	392.26
898.801	473.97
899.104	394.82
899.408	371.84
899.711	448.44
900.014	397.37
900.318	346.3
900.621	445.88
900.924	341.2
901.228	430.56
901.531	461.2
901.834	348.86
902.137	394.82
902.44	438.22
902.743	428.01
903.046	382.05
903.349	387.16
903.652	384.6
903.955	389.71
904.257	420.35
904.56	433.12
904.863	369.28
905.165	425.46
905.468	402.48
905.77	417.8
906.073	392.26
906.375	366.73
906.678	369.28
906.98	417.8
907.282	348.86
907.584	325.87
907.887	415.24
908.189	366.73
908.491	338.64
908.793	376.94
909.095	384.6
909.397	384.6
909.699	415.24
910.001	382.05
910.302	379.5
910.604	420.35
910.906	425.46
911.208	415.24
911.509	422.9
911.811	407.58
912.112	443.33
912.414	415.24
912.715	343.75
913.017	417.8
913.318	384.6
913.619	346.3
913.92	353.96
914.222	374.39
914.523	348.86
914.824	394.82
915.125	374.39
915.426	491.84
915.727	450.99
916.028	397.37
916.329	430.56
916.63	425.46
916.93	468.86
917.231	479.08
917.532	394.82
917.832	387.16
918.133	359.07
918.434	379.5
918.734	415.24
919.034	435.67
919.335	399.92
919.635	397.37
919.935	392.26
920.236	369.28
920.536	440.78
920.836	320.77
921.136	364.18
921.436	494.4
921.736	402.48
922.036	433.12
922.336	366.73
922.636	420.35
922.936	392.26
923.236	417.8
923.535	382.05
923.835	394.82
924.135	433.12
924.434	351.41
924.734	374.39
925.033	366.73
925.333	420.35
925.632	417.8
925.932	473.97
926.231	410.14
926.53	405.03
926.83	412.69
927.129	425.46
927.428	371.84
927.727	397.37
928.026	348.86
928.325	412.69
928.624	435.67
928.923	366.73
929.222	369.28
929.52	402.48
929.819	433.12
930.118	348.86
930.417	405.03
930.715	428.01
931.014	473.97
931.312	443.33
931.611	407.58
931.909	410.14
932.207	379.5
932.506	376.94
932.804	392.26
933.102	410.14
933.401	433.12
933.699	356.52
933.997	415.24
934.295	428.01
934.593	376.94
934.891	412.69
935.189	440.78
935.487	435.67
935.784	399.92
936.082	456.1
936.38	366.73
936.677	382.05
936.975	374.39
937.273	417.8
937.57	420.35
937.868	445.88
938.165	382.05
938.463	389.71
938.76	481.63
939.057	463.76
939.354	369.28
939.652	402.48
939.949	438.22
940.246	346.3
940.543	346.3
940.84	407.58
941.137	392.26
941.434	394.82
941.731	364.18
942.028	379.5
942.324	359.07
942.621	407.58
942.918	481.63
943.214	430.56
943.511	402.48
943.807	382.05
944.104	359.07
944.4	371.84
944.697	428.01
944.993	310.55
945.29	407.58
945.586	402.48
945.882	412.69
946.178	389.71
946.474	366.73
946.77	445.88
947.066	295.23
947.362	392.26
947.658	458.65
947.954	369.28
948.25	430.56
948.546	348.86
948.842	407.58
949.137	379.5
949.433	341.2
949.729	422.9
950.024	428.01
950.32	399.92
950.615	433.12
950.91	371.84
951.206	376.94
951.501	410.14
951.796	397.37
952.092	387.16
952.387	443.33
952.682	333.54
952.977	356.52
953.272	384.6
953.567	405.03
953.862	397.37
954.157	430.56
954.452	384.6
954.747	399.92
955.041	374.39
955.336	374.39
955.631	361.62
955.925	359.07
956.22	397.37
956.514	435.67
956.809	440.78
957.103	361.62
957.398	397.37
957.692	384.6
957.986	389.71
958.281	336.09
958.575	361.62
958.869	399.92
959.163	369.28
959.457	371.84
959.751	384.6
960.045	320.77
960.339	422.9
960.633	356.52
960.927	422.9
961.221	353.96
961.514	397.37
961.808	300.34
962.102	399.92
962.395	397.37
962.689	410.14
962.982	456.1
963.276	351.41
963.569	417.8
963.862	399.92
964.156	376.94
964.449	410.14
964.742	433.12
965.035	394.82
965.328	371.84
965.622	425.46
965.915	341.2
966.208	376.94
966.5	389.71
966.793	453.54
967.086	410.14
967.379	392.26
967.672	486.74
967.964	392.26
968.257	382.05
968.55	397.37
968.842	422.9
969.135	410.14
969.427	366.73
969.72	428.01
970.012	425.46
970.304	387.16
970.597	438.22
970.889	456.1
971.181	420.35
971.473	399.92
971.765	491.84
972.057	425.46
972.349	415.24
972.641	448.44
972.933	407.58
973.225	330.98
973.517	394.82
973.809	410.14
974.1	384.6
974.392	379.5
974.684	392.26
974.975	410.14
975.267	463.76
975.558	430.56
975.85	300.34
976.141	438.22
976.432	417.8
976.724	320.77
977.015	392.26
977.306	443.33
977.597	476.52
977.888	415.24
978.179	366.73
978.47	376.94
978.761	376.94
979.052	394.82
979.343	491.84
979.634	496.95
979.925	328.43
980.215	425.46
980.506	415.24
980.797	417.8
981.087	359.07
981.378	387.16
981.668	430.56
981.959	399.92
982.249	410.14
982.54	417.8
982.83	384.6
983.12	341.2
983.41	387.16
983.701	346.3
983.991	384.6
984.281	405.03
984.571	305.45
984.861	369.28
985.151	359.07
985.441	359.07
985.73	425.46
986.02	359.07
986.31	387.16
986.6	407.58
986.889	351.41
987.179	415.24
987.469	417.8
987.758	440.78
988.048	353.96
988.337	392.26
988.626	405.03
988.916	374.39
989.205	417.8
989.494	369.28
989.783	382.05
990.073	328.43
990.362	405.03
990.651	461.2
990.94	422.9
991.229	448.44
991.518	346.3
991.806	364.18
992.095	305.45
992.384	412.69
992.673	364.18
992.961	389.71
993.25	399.92
993.539	399.92
993.827	382.05
994.116	420.35
994.404	382.05
994.692	438.22
994.981	397.37
995.269	422.9
995.557	397.37
995.846	387.16
996.134	445.88
996.422	374.39
996.71	376.94
996.998	359.07
997.286	389.71
997.574	399.92
997.862	456.1
998.15	333.54
998.437	382.05
998.725	336.09
999.013	361.62
999.3	374.39
999.588	379.5
999.876	397.37
1000.163	389.71
1000.45	320.77
1000.738	369.28
1001.025	387.16
1001.313	394.82
1001.6	392.26
1001.887	371.84
1002.174	412.69
1002.461	374.39
1002.748	450.99
1003.036	392.26
1003.322	407.58
1003.609	397.37
1003.896	353.96
1004.183	376.94
1004.47	325.87
1004.757	420.35
1005.043	399.92
1005.33	292.68
1005.617	445.88
1005.903	384.6
1006.19	346.3
1006.476	417.8
1006.763	430.56
1007.049	415.24
1007.335	384.6
1007.622	435.67
1007.908	369.28
1008.194	346.3
1008.48	323.32
1008.766	405.03
1009.053	348.86
1009.339	361.62
1009.625	369.28
1009.91	384.6
1010.196	435.67
1010.482	422.9
1010.768	361.62
1011.054	407.58
1011.339	374.39
1011.625	399.92
1011.911	458.65
1012.196	397.37
1012.482	369.28
1012.767	440.78
1013.052	438.22
1013.338	420.35
1013.623	440.78
1013.908	428.01
1014.194	346.3
1014.479	410.14
1014.764	412.69
1015.049	346.3
1015.334	405.03
1015.619	394.82
1015.904	428.01
1016.189	366.73
1016.474	415.24
1016.758	420.35
1017.043	405.03
1017.328	420.35
1017.613	384.6
1017.897	420.35
1018.182	433.12
1018.466	369.28
1018.751	422.9
1019.035	435.67
1019.32	382.05
1019.604	382.05
1019.888	330.98
1020.172	330.98
1020.457	330.98
