Data from 2025-12-03_xpw_interference_micrometer_634_reference_FLMS141361__136__386.txt Node

Date: Wed Dec 03 15:51:26 MST 2025
User: james
Spectrometer: FLMS14136
Trigger mode: 0
Integration Time (sec): 1.000000E-1
Scans to average: 1
Electric dark correction enabled: true
Nonlinearity correction enabled: false
Boxcar width: 0
XAxis mode: Wavelengths
Number of Pixels in Spectrum: 2048
>>>>>Begin Spectral Data<<<<<
339.315	-53.14
339.697	-53.14
340.079	-53.14
340.461	-19.95
340.843	-101.66
341.225	-83.78
341.607	-68.46
341.989	-119.53
342.371	-88.89
342.752	-53.14
343.134	-63.36
343.516	-71.02
343.897	-40.38
344.279	5.59
344.661	48.99
345.042	33.67
345.423	43.89
345.805	110.27
346.186	66.87
346.567	115.38
346.949	163.89
347.33	163.89
347.711	191.98
348.092	204.75
348.473	204.75
348.854	258.37
349.235	289.01
349.616	248.16
349.997	212.41
350.378	283.9
350.758	327.31
351.139	368.17
351.52	306.88
351.9	386.04
352.281	391.15
352.661	334.97
353.042	360.51
353.422	375.83
353.803	432
354.183	403.91
354.563	380.93
354.943	424.34
355.324	340.08
355.704	419.23
356.084	429.45
356.464	322.2
356.844	444.77
357.224	419.23
357.603	345.18
357.983	324.76
358.363	429.45
358.743	429.45
359.122	375.83
359.502	350.29
359.882	360.51
360.261	350.29
360.641	324.76
361.02	370.72
361.399	327.31
361.779	378.38
362.158	368.17
362.537	370.72
362.916	398.81
363.296	340.08
363.675	319.65
364.054	386.04
364.433	398.81
364.812	329.86
365.19	317.1
365.569	373.27
365.948	426.89
366.327	355.4
366.705	332.42
367.084	329.86
367.463	373.27
367.841	386.04
368.22	365.61
368.598	337.52
368.977	357.95
369.355	434.55
369.733	324.76
370.111	309.44
370.49	345.18
370.868	314.54
371.246	383.49
371.624	345.18
372.002	301.78
372.38	391.15
372.758	345.18
373.136	322.2
373.513	309.44
373.891	347.74
374.269	327.31
374.646	329.86
375.024	311.99
375.402	317.1
375.779	365.61
376.157	386.04
376.534	357.95
376.911	378.38
377.289	391.15
377.666	365.61
378.043	268.58
378.42	334.97
378.797	324.76
379.175	393.7
379.552	340.08
379.929	352.84
380.305	345.18
380.682	319.65
381.059	352.84
381.436	403.91
381.813	352.84
382.189	380.93
382.566	398.81
382.943	332.42
383.319	378.38
383.696	373.27
384.072	388.59
384.448	314.54
384.825	352.84
385.201	340.08
385.577	337.52
385.953	360.51
386.329	355.4
386.706	347.74
387.082	383.49
387.458	370.72
387.834	398.81
388.209	355.4
388.585	375.83
388.961	373.27
389.337	393.7
389.713	355.4
390.088	350.29
390.464	319.65
390.839	368.17
391.215	301.78
391.59	386.04
391.966	337.52
392.341	286.46
392.716	370.72
393.092	403.91
393.467	375.83
393.842	370.72
394.217	401.36
394.592	378.38
394.967	444.77
395.342	370.72
395.717	337.52
396.092	363.06
396.467	365.61
396.841	347.74
397.216	296.67
397.591	386.04
397.965	301.78
398.34	380.93
398.714	442.21
399.089	340.08
399.463	411.57
399.838	347.74
400.212	332.42
400.586	337.52
400.961	357.95
401.335	398.81
401.709	391.15
402.083	363.06
402.457	391.15
402.831	370.72
403.205	391.15
403.579	332.42
403.953	393.7
404.326	403.91
404.7	388.59
405.074	414.13
405.447	398.81
405.821	383.49
406.195	337.52
406.568	345.18
406.942	419.23
407.315	360.51
407.688	363.06
408.062	406.47
408.435	421.79
408.808	375.83
409.181	414.13
409.554	429.45
409.927	396.25
410.3	378.38
410.673	375.83
411.046	383.49
411.419	319.65
411.792	340.08
412.165	360.51
412.537	370.72
412.91	388.59
413.283	414.13
413.655	439.66
414.028	429.45
414.4	378.38
414.773	380.93
415.145	357.95
415.517	386.04
415.889	355.4
416.262	432
416.634	373.27
417.006	365.61
417.378	375.83
417.75	345.18
418.122	383.49
418.494	388.59
418.866	421.79
419.238	355.4
419.609	355.4
419.981	398.81
420.353	452.43
420.725	352.84
421.096	375.83
421.468	380.93
421.839	396.25
422.211	373.27
422.582	388.59
422.953	426.89
423.325	352.84
423.696	340.08
424.067	378.38
424.438	416.68
424.809	447.32
425.18	393.7
425.551	398.81
425.922	324.76
426.293	406.47
426.664	421.79
427.035	470.3
427.406	416.68
427.776	391.15
428.147	437.11
428.518	439.66
428.888	355.4
429.259	411.57
429.629	434.55
429.999	396.25
430.37	396.25
430.74	334.97
431.11	363.06
431.481	383.49
431.851	396.25
432.221	411.57
432.591	365.61
432.961	327.31
433.331	327.31
433.701	340.08
434.071	403.91
434.441	426.89
434.81	365.61
435.18	411.57
435.55	383.49
435.919	383.49
436.289	380.93
436.658	391.15
437.028	388.59
437.397	419.23
437.767	347.74
438.136	393.7
438.505	378.38
438.875	447.32
439.244	539.24
439.613	437.11
439.982	424.34
440.351	370.72
440.72	386.04
441.089	360.51
441.458	365.61
441.827	419.23
442.196	368.17
442.564	462.64
442.933	419.23
443.302	391.15
443.67	283.9
444.039	396.25
444.407	383.49
444.776	401.36
445.144	409.02
445.513	365.61
445.881	437.11
446.249	439.66
446.617	434.55
446.986	370.72
447.354	386.04
447.722	391.15
448.09	457.53
448.458	439.66
448.826	485.62
449.194	340.08
449.561	409.02
449.929	401.36
450.297	396.25
450.665	378.38
451.032	454.98
451.4	416.68
451.767	368.17
452.135	503.49
452.502	432
452.87	419.23
453.237	421.79
453.604	437.11
453.971	439.66
454.339	403.91
454.706	406.47
455.073	398.81
455.44	432
455.807	401.36
456.174	368.17
456.541	421.79
456.908	360.51
457.274	357.95
457.641	414.13
458.008	401.36
458.374	470.3
458.741	444.77
459.108	421.79
459.474	403.91
459.841	352.84
460.207	380.93
460.573	409.02
460.94	424.34
461.306	403.91
461.672	357.95
462.038	403.91
462.404	432
462.771	383.49
463.137	342.63
463.503	462.64
463.868	470.3
464.234	454.98
464.6	475.41
464.966	403.91
465.332	454.98
465.697	442.21
466.063	373.27
466.429	454.98
466.794	383.49
467.16	403.91
467.525	429.45
467.89	424.34
468.256	424.34
468.621	378.38
468.986	352.84
469.351	411.57
469.717	454.98
470.082	414.13
470.447	340.08
470.812	429.45
471.177	434.55
471.542	373.27
471.906	368.17
472.271	373.27
472.636	411.57
473.001	449.87
473.365	383.49
473.73	452.43
474.094	414.13
474.459	434.55
474.823	401.36
475.188	434.55
475.552	409.02
475.917	363.06
476.281	444.77
476.645	383.49
477.009	465.19
477.373	401.36
477.737	409.02
478.101	383.49
478.465	373.27
478.829	368.17
479.193	424.34
479.557	391.15
479.921	383.49
480.284	414.13
480.648	370.72
481.012	363.06
481.375	424.34
481.739	475.41
482.102	409.02
482.466	434.55
482.829	465.19
483.193	393.7
483.556	480.51
483.919	432
484.282	322.2
484.645	388.59
485.009	414.13
485.372	432
485.735	439.66
486.098	424.34
486.46	370.72
486.823	363.06
487.186	403.91
487.549	411.57
487.912	378.38
488.274	424.34
488.637	383.49
488.999	393.7
489.362	363.06
489.724	391.15
490.087	378.38
490.449	475.41
490.811	424.34
491.174	439.66
491.536	419.23
491.898	421.79
492.26	352.84
492.622	373.27
492.984	391.15
493.346	411.57
493.708	506.05
494.07	444.77
494.432	424.34
494.794	439.66
495.155	485.62
495.517	495.83
495.879	409.02
496.24	444.77
496.602	411.57
496.963	470.3
497.325	403.91
497.686	472.85
498.048	429.45
498.409	434.55
498.77	462.64
499.131	383.49
499.492	429.45
499.854	462.64
500.215	439.66
500.576	429.45
500.937	403.91
501.298	421.79
501.658	414.13
502.019	380.93
502.38	411.57
502.741	460.09
503.101	403.91
503.462	465.19
503.823	352.84
504.183	322.2
504.543	421.79
504.904	403.91
505.264	444.77
505.625	414.13
505.985	373.27
506.345	393.7
506.705	393.7
507.065	460.09
507.426	439.66
507.786	475.41
508.146	398.81
508.505	414.13
508.865	452.43
509.225	386.04
509.585	490.73
509.945	432
510.304	373.27
510.664	378.38
511.024	411.57
511.383	401.36
511.743	398.81
512.102	403.91
512.462	432
512.821	393.7
513.18	424.34
513.539	380.93
513.899	373.27
514.258	414.13
514.617	373.27
514.976	368.17
515.335	409.02
515.694	424.34
516.053	444.77
516.412	419.23
516.771	442.21
517.129	391.15
517.488	429.45
517.847	403.91
518.205	396.25
518.564	414.13
518.922	393.7
519.281	411.57
519.639	454.98
519.998	411.57
520.356	403.91
520.714	429.45
521.073	465.19
521.431	434.55
521.789	414.13
522.147	414.13
522.505	432
522.863	388.59
523.221	460.09
523.579	485.62
523.937	398.81
524.295	363.06
524.652	411.57
525.01	340.08
525.368	424.34
525.725	432
526.083	388.59
526.44	368.17
526.798	373.27
527.155	439.66
527.513	434.55
527.87	432
528.227	411.57
528.584	419.23
528.942	432
529.299	342.63
529.656	419.23
530.013	495.83
530.37	401.36
530.727	490.73
531.083	429.45
531.44	380.93
531.797	424.34
532.154	419.23
532.511	391.15
532.867	396.25
533.224	373.27
533.58	373.27
533.937	345.18
534.293	398.81
534.65	432
535.006	311.99
535.362	398.81
535.718	432
536.075	437.11
536.431	347.74
536.787	444.77
537.143	411.57
537.499	373.27
537.855	329.86
538.211	411.57
538.567	311.99
538.923	368.17
539.278	403.91
539.634	419.23
539.99	403.91
540.345	352.84
540.701	416.68
541.056	419.23
541.412	411.57
541.767	383.49
542.123	398.81
542.478	421.79
542.833	375.83
543.188	352.84
543.544	383.49
543.899	396.25
544.254	444.77
544.609	432
544.964	378.38
545.319	409.02
545.674	472.85
546.029	414.13
546.383	363.06
546.738	447.32
547.093	401.36
547.447	470.3
547.802	398.81
548.157	393.7
548.511	370.72
548.866	368.17
549.22	391.15
549.574	477.96
549.929	444.77
550.283	403.91
550.637	457.53
550.991	449.87
551.345	421.79
551.699	454.98
552.053	373.27
552.407	370.72
552.761	411.57
553.115	439.66
553.469	444.77
553.823	419.23
554.176	439.66
554.53	409.02
554.884	391.15
555.237	705.21
555.591	472.85
555.944	442.21
556.298	426.89
556.651	434.55
557.005	411.57
557.358	398.81
557.711	409.02
558.064	472.85
558.417	393.7
558.771	470.3
559.124	452.43
559.477	386.04
559.83	398.81
560.182	434.55
560.535	432
560.888	490.73
561.241	503.49
561.594	457.53
561.946	434.55
562.299	368.17
562.651	437.11
563.004	414.13
563.356	447.32
563.709	373.27
564.061	360.51
564.413	401.36
564.766	393.7
565.118	401.36
565.47	398.81
565.822	414.13
566.174	357.95
566.526	352.84
566.878	393.7
567.23	426.89
567.582	414.13
567.934	380.93
568.286	470.3
568.638	393.7
568.989	380.93
569.341	398.81
569.693	419.23
570.044	365.61
570.396	393.7
570.747	454.98
571.098	411.57
571.45	396.25
571.801	360.51
572.152	409.02
572.504	342.63
572.855	434.55
573.206	345.18
573.557	332.42
573.908	416.68
574.259	409.02
574.61	393.7
574.961	391.15
575.311	383.49
575.662	391.15
576.013	370.72
576.364	424.34
576.714	383.49
577.065	373.27
577.415	378.38
577.766	347.74
578.116	378.38
578.467	296.67
578.817	317.1
579.167	365.61
579.518	401.36
579.868	345.18
580.218	396.25
580.568	411.57
580.918	421.79
581.268	383.49
581.618	426.89
581.968	309.44
582.318	383.49
582.668	419.23
583.017	398.81
583.367	442.21
583.717	424.34
584.066	424.34
584.416	421.79
584.765	503.49
585.115	439.66
585.464	429.45
585.814	357.95
586.163	414.13
586.512	393.7
586.862	370.72
587.211	345.18
587.56	370.72
587.909	403.91
588.258	414.13
588.607	419.23
588.956	437.11
589.305	368.17
589.654	424.34
590.002	414.13
590.351	401.36
590.7	426.89
591.048	452.43
591.397	439.66
591.746	378.38
592.094	403.91
592.443	401.36
592.791	398.81
593.139	426.89
593.488	416.68
593.836	429.45
594.184	429.45
594.532	426.89
594.88	498.39
595.228	411.57
595.576	432
595.924	406.47
596.272	457.53
596.62	416.68
596.968	419.23
597.316	439.66
597.664	457.53
598.011	386.04
598.359	416.68
598.706	411.57
599.054	386.04
599.402	370.72
599.749	411.57
600.096	416.68
600.444	332.42
600.791	406.47
601.138	398.81
601.485	444.77
601.833	411.57
602.18	434.55
602.527	401.36
602.874	345.18
603.221	439.66
603.568	454.98
603.914	398.81
604.261	388.59
604.608	391.15
604.955	401.36
605.301	424.34
605.648	462.64
605.995	411.57
606.341	449.87
606.688	414.13
607.034	409.02
607.38	403.91
607.727	403.91
608.073	350.29
608.419	419.23
608.765	411.57
609.112	403.91
609.458	388.59
609.804	419.23
610.15	483.07
610.496	409.02
610.842	398.81
611.187	401.36
611.533	483.07
611.879	403.91
612.225	462.64
612.57	467.75
612.916	449.87
613.261	424.34
613.607	383.49
613.952	368.17
614.298	350.29
614.643	396.25
614.989	398.81
615.334	485.62
615.679	426.89
616.024	378.38
616.369	432
616.714	421.79
617.059	352.84
617.404	406.47
617.749	360.51
618.094	424.34
618.439	383.49
618.784	352.84
619.129	365.61
619.473	409.02
619.818	434.55
620.163	439.66
620.507	317.1
620.852	421.79
621.196	396.25
621.54	342.63
621.885	370.72
622.229	406.47
622.573	393.7
622.918	370.72
623.262	424.34
623.606	414.13
623.95	360.51
624.294	337.52
624.638	388.59
624.982	429.45
625.326	454.98
625.67	393.7
626.013	426.89
626.357	360.51
626.701	375.83
627.044	388.59
627.388	363.06
627.731	380.93
628.075	373.27
628.418	380.93
628.762	350.29
629.105	419.23
629.448	444.77
629.792	434.55
630.135	373.27
630.478	424.34
630.821	396.25
631.164	434.55
631.507	424.34
631.85	439.66
632.193	409.02
632.536	406.47
632.879	419.23
633.221	419.23
633.564	442.21
633.907	370.72
634.249	396.25
634.592	350.29
634.935	370.72
635.277	409.02
635.619	409.02
635.962	411.57
636.304	383.49
636.646	419.23
636.989	401.36
637.331	411.57
637.673	449.87
638.015	383.49
638.357	416.68
638.699	444.77
639.041	424.34
639.383	370.72
639.725	317.1
640.067	375.83
640.408	434.55
640.75	414.13
641.092	347.74
641.433	437.11
641.775	421.79
642.116	322.2
642.458	454.98
642.799	370.72
643.141	416.68
643.482	393.7
643.823	429.45
644.164	363.06
644.506	475.41
644.847	452.43
645.188	383.49
645.529	380.93
645.87	368.17
646.211	460.09
646.552	403.91
646.893	409.02
647.233	398.81
647.574	324.76
647.915	380.93
648.255	347.74
648.596	370.72
648.937	426.89
649.277	462.64
649.618	368.17
649.958	406.47
650.298	383.49
650.639	396.25
650.979	393.7
651.319	365.61
651.659	406.47
651.999	454.98
652.339	386.04
652.679	352.84
653.019	411.57
653.359	406.47
653.699	409.02
654.039	421.79
654.379	444.77
654.719	311.99
655.058	324.76
655.398	355.4
655.737	424.34
656.077	378.38
656.416	398.81
656.756	365.61
657.095	416.68
657.435	485.62
657.774	432
658.113	391.15
658.452	426.89
658.792	447.32
659.131	414.13
659.47	352.84
659.809	383.49
660.148	437.11
660.487	340.08
660.826	424.34
661.164	439.66
661.503	383.49
661.842	396.25
662.181	419.23
662.519	470.3
662.858	416.68
663.196	414.13
663.535	401.36
663.873	432
664.212	355.4
664.55	411.57
664.888	388.59
665.226	409.02
665.565	368.17
665.903	590.31
666.241	460.09
666.579	411.57
666.917	386.04
667.255	375.83
667.593	396.25
667.931	380.93
668.268	424.34
668.606	329.86
668.944	391.15
669.282	375.83
669.619	444.77
669.957	378.38
670.294	383.49
670.632	378.38
670.969	355.4
671.307	419.23
671.644	396.25
671.981	393.7
672.318	375.83
672.656	411.57
672.993	386.04
673.33	432
673.667	424.34
674.004	508.6
674.341	373.27
674.678	442.21
675.015	409.02
675.351	357.95
675.688	386.04
676.025	327.31
676.362	373.27
676.698	396.25
677.035	493.28
677.371	386.04
677.708	324.76
678.044	429.45
678.38	360.51
678.717	347.74
679.053	421.79
679.389	375.83
679.725	401.36
680.062	429.45
680.398	406.47
680.734	388.59
681.07	432
681.406	434.55
681.742	462.64
682.077	360.51
682.413	421.79
682.749	409.02
683.085	409.02
683.42	393.7
683.756	449.87
684.091	454.98
684.427	406.47
684.762	386.04
685.098	311.99
685.433	396.25
685.768	409.02
686.104	391.15
686.439	365.61
686.774	368.17
687.109	334.97
687.444	365.61
687.779	383.49
688.114	386.04
688.449	375.83
688.784	477.96
689.119	355.4
689.454	342.63
689.789	391.15
690.123	457.53
690.458	406.47
690.792	421.79
691.127	403.91
691.461	429.45
691.796	396.25
692.13	370.72
692.465	393.7
692.799	373.27
693.133	391.15
693.467	360.51
693.802	424.34
694.136	363.06
694.47	368.17
694.804	434.55
695.138	378.38
695.472	424.34
695.806	403.91
696.139	365.61
696.473	424.34
696.807	334.97
697.141	409.02
697.474	363.06
697.808	406.47
698.141	403.91
698.475	437.11
698.808	452.43
699.142	388.59
699.475	442.21
699.808	409.02
700.142	416.68
700.475	434.55
700.808	340.08
701.141	465.19
701.474	432
701.807	375.83
702.14	383.49
702.473	378.38
702.806	409.02
703.139	342.63
703.472	411.57
703.804	414.13
704.137	375.83
704.47	360.51
704.802	454.98
705.135	414.13
705.467	398.81
705.8	386.04
706.132	357.95
706.464	419.23
706.797	378.38
707.129	386.04
707.461	340.08
707.793	380.93
708.125	416.68
708.457	416.68
708.789	380.93
709.121	368.17
709.453	414.13
709.785	416.68
710.117	401.36
710.449	403.91
710.781	437.11
711.112	470.3
711.444	375.83
711.775	383.49
712.107	363.06
712.438	406.47
712.77	365.61
713.101	406.47
713.433	388.59
713.764	434.55
714.095	401.36
714.426	380.93
714.757	375.83
715.089	324.76
715.42	352.84
715.751	378.38
716.082	424.34
716.412	360.51
716.743	355.4
717.074	398.81
717.405	406.47
717.736	506.05
718.066	352.84
718.397	396.25
718.727	386.04
719.058	447.32
719.388	378.38
719.719	475.41
720.049	396.25
720.38	406.47
720.71	401.36
721.04	437.11
721.37	398.81
721.7	304.33
722.031	396.25
722.361	398.81
722.691	411.57
723.021	380.93
723.35	386.04
723.68	380.93
724.01	432
724.34	347.74
724.67	419.23
724.999	416.68
725.329	398.81
725.658	454.98
725.988	457.53
726.317	426.89
726.647	319.65
726.976	314.54
727.306	363.06
727.635	380.93
727.964	411.57
728.293	393.7
728.622	380.93
728.952	388.59
729.281	373.27
729.61	363.06
729.939	337.52
730.267	347.74
730.596	391.15
730.925	434.55
731.254	373.27
731.583	319.65
731.911	365.61
732.24	398.81
732.568	383.49
732.897	398.81
733.225	393.7
733.554	401.36
733.882	380.93
734.21	424.34
734.539	375.83
734.867	393.7
735.195	378.38
735.523	414.13
735.851	414.13
736.179	334.97
736.507	393.7
736.835	360.51
737.163	332.42
737.491	398.81
737.819	370.72
738.147	409.02
738.474	398.81
738.802	444.77
739.13	477.96
739.457	388.59
739.785	432
740.112	329.86
740.44	317.1
740.767	442.21
741.094	375.83
741.422	352.84
741.749	388.59
742.076	370.72
742.403	368.17
742.73	426.89
743.057	373.27
743.384	411.57
743.711	383.49
744.038	391.15
744.365	406.47
744.692	398.81
745.018	444.77
745.345	419.23
745.672	352.84
745.998	411.57
746.325	370.72
746.651	383.49
746.978	421.79
747.304	439.66
747.631	414.13
747.957	363.06
748.283	368.17
748.61	398.81
748.936	355.4
749.262	388.59
749.588	398.81
749.914	380.93
750.24	350.29
750.566	334.97
750.892	437.11
751.218	462.64
751.543	439.66
751.869	368.17
752.195	391.15
752.521	370.72
752.846	439.66
753.172	411.57
753.497	386.04
753.823	403.91
754.148	352.84
754.473	355.4
754.799	352.84
755.124	370.72
755.449	403.91
755.774	368.17
756.1	416.68
756.425	414.13
756.75	506.05
757.075	388.59
757.4	457.53
757.724	483.07
758.049	368.17
758.374	363.06
758.699	401.36
759.024	391.15
759.348	393.7
759.673	365.61
759.997	393.7
760.322	444.77
760.646	398.81
760.971	347.74
761.295	391.15
761.619	454.98
761.944	383.49
762.268	442.21
762.592	416.68
762.916	470.3
763.24	439.66
763.564	434.55
763.888	500.94
764.212	503.49
764.536	590.31
764.86	503.49
765.184	628.61
765.508	661.8
765.831	618.4
766.155	917.14
766.478	730.74
766.802	684.78
767.126	779.26
767.449	751.17
767.772	891.61
768.096	980.98
768.419	963.1
768.742	878.84
769.066	929.91
769.389	975.87
769.712	1029.49
770.035	1001.4
770.358	1162.27
770.681	1233.76
771.004	1139.29
771.327	1121.41
771.65	1223.55
771.972	1295.04
772.295	1341
772.618	1343.56
772.941	1371.64
773.263	1366.54
773.586	1499.31
773.908	1604
774.231	1675.49
774.553	1660.17
774.875	1754.65
775.198	1846.57
775.52	1749.54
775.842	1764.86
776.164	1792.95
776.487	1831.25
776.809	1902.75
777.131	1966.58
777.453	1877.21
777.775	1833.8
778.096	1920.62
778.418	2027.86
778.74	1905.3
779.062	1918.07
779.384	2053.39
779.705	2367.46
780.027	2543.64
780.348	2564.07
780.67	2622.8
780.991	2622.8
781.313	2903.67
781.634	2990.48
781.955	2862.82
782.277	2750.47
782.598	2740.25
782.919	2691.74
783.24	2704.51
783.561	2753.02
783.882	2676.42
784.203	2793.87
784.524	2819.41
784.845	2730.04
785.166	2655.99
785.487	2592.16
785.807	2630.46
786.128	2423.63
786.449	2533.43
786.769	2561.52
787.09	2781.11
787.41	2855.16
787.731	3120.71
788.051	3261.14
788.372	3347.96
788.692	3539.46
789.012	3626.28
789.332	3713.09
789.653	3891.83
789.973	4016.94
790.293	3850.97
790.613	3465.41
790.933	3166.67
791.253	3204.97
791.573	2982.82
791.893	2867.92
792.212	2737.7
792.532	2699.4
792.852	2627.9
793.171	2459.38
793.491	2515.56
793.811	2530.88
794.13	2548.75
794.45	2502.79
794.769	2510.45
795.088	2661.1
795.408	2673.87
795.727	2783.66
796.046	2837.28
796.365	2643.22
796.684	2543.64
797.004	2520.66
797.323	2502.79
797.642	2786.21
797.96	2867.92
798.279	2801.53
798.598	2581.94
798.917	2566.62
799.236	2433.85
799.554	2224.47
799.873	2227.02
800.192	2280.65
800.51	2262.77
800.829	2267.88
801.147	2173.4
801.466	2142.76
801.784	1997.22
802.102	2027.86
802.421	2127.44
802.739	2265.33
803.057	2173.4
803.375	1966.58
803.693	1869.55
804.011	2150.42
804.329	2219.36
804.647	2168.3
804.965	2048.29
805.283	2020.2
805.601	1915.51
805.918	1849.12
806.236	1782.74
806.554	1823.59
806.871	1805.72
807.189	1915.51
807.507	2081.48
807.824	1813.38
808.141	1685.71
808.459	1519.74
808.776	1450.8
809.093	1203.12
809.411	1123.97
809.728	1152.05
810.045	1182.69
810.362	1177.59
810.679	1208.23
810.996	1182.69
811.313	1198.01
811.63	1325.68
811.947	1261.85
812.264	1236.31
812.58	1157.16
812.897	1246.53
813.214	1182.69
813.53	1261.85
813.847	1289.93
814.163	1200.57
814.48	1233.76
814.796	1203.12
815.113	1185.25
815.429	1169.93
815.745	1103.54
816.061	1044.81
816.378	1044.81
816.694	1034.6
817.01	935.02
817.326	1090.77
817.642	1011.62
817.958	914.59
818.274	883.95
818.59	827.77
818.905	763.94
819.221	784.37
819.537	858.41
819.852	848.2
820.168	850.75
820.484	830.33
820.799	804.79
821.115	917.14
821.43	825.22
821.745	786.92
822.061	827.77
822.376	784.37
822.691	758.83
823.006	774.15
823.322	758.83
823.637	743.51
823.952	697.55
824.267	684.78
824.582	712.87
824.897	679.68
825.211	661.8
825.526	577.54
825.841	590.31
826.156	672.02
826.47	587.76
826.785	585.2
827.1	623.5
827.414	559.67
827.729	564.78
828.043	572.44
828.357	541.79
828.672	534.13
828.986	544.35
829.3	587.76
829.614	631.16
829.929	615.84
830.243	572.44
830.557	582.65
830.871	521.37
831.185	529.03
831.499	465.19
831.812	513.71
832.126	493.28
832.44	529.03
832.754	498.39
833.067	546.9
833.381	587.76
833.695	500.94
834.008	513.71
834.322	549.46
834.635	506.05
834.948	444.77
835.262	462.64
835.575	475.41
835.888	457.53
836.201	490.73
836.515	460.09
836.828	363.06
837.141	439.66
837.454	493.28
837.767	457.53
838.08	462.64
838.392	511.15
838.705	467.75
839.018	419.23
839.331	416.68
839.643	429.45
839.956	442.21
840.269	416.68
840.581	421.79
840.894	401.36
841.206	457.53
841.519	500.94
841.831	411.57
842.143	419.23
842.455	454.98
842.768	437.11
843.08	416.68
843.392	439.66
843.704	406.47
844.016	403.91
844.328	426.89
844.64	386.04
844.952	386.04
845.263	437.11
845.575	403.91
845.887	365.61
846.199	401.36
846.51	370.72
846.822	447.32
847.133	373.27
847.445	406.47
847.756	465.19
848.068	434.55
848.379	406.47
848.69	383.49
849.002	401.36
849.313	368.17
849.624	378.38
849.935	401.36
850.246	439.66
850.557	444.77
850.868	426.89
851.179	462.64
851.49	444.77
851.801	396.25
852.112	403.91
852.422	334.97
852.733	373.27
853.044	409.02
853.354	360.51
853.665	373.27
853.975	360.51
854.286	398.81
854.596	345.18
854.906	363.06
855.217	424.34
855.527	414.13
855.837	401.36
856.147	329.86
856.458	347.74
856.768	414.13
857.078	373.27
857.388	347.74
857.698	347.74
858.007	355.4
858.317	383.49
858.627	393.7
858.937	370.72
859.246	406.47
859.556	386.04
859.866	398.81
860.175	357.95
860.485	414.13
860.794	365.61
861.104	416.68
861.413	375.83
861.722	401.36
862.032	398.81
862.341	365.61
862.65	360.51
862.959	401.36
863.268	439.66
863.577	421.79
863.886	421.79
864.195	373.27
864.504	398.81
864.813	314.54
865.122	388.59
865.43	337.52
865.739	419.23
866.048	345.18
866.356	375.83
866.665	345.18
866.973	401.36
867.282	406.47
867.59	370.72
867.899	421.79
868.207	437.11
868.515	419.23
868.823	340.08
869.132	363.06
869.44	414.13
869.748	365.61
870.056	329.86
870.364	383.49
870.672	414.13
870.98	398.81
871.288	365.61
871.595	409.02
871.903	429.45
872.211	434.55
872.518	350.29
872.826	411.57
873.134	391.15
873.441	421.79
873.749	357.95
874.056	363.06
874.363	429.45
874.671	373.27
874.978	363.06
875.285	375.83
875.592	403.91
875.9	375.83
876.207	388.59
876.514	419.23
876.821	380.93
877.128	352.84
877.435	447.32
877.741	396.25
878.048	447.32
878.355	337.52
878.662	311.99
878.968	386.04
879.275	345.18
879.582	396.25
879.888	401.36
880.195	403.91
880.501	375.83
880.807	340.08
881.114	365.61
881.42	368.17
881.726	383.49
882.032	421.79
882.339	424.34
882.645	426.89
882.951	360.51
883.257	429.45
883.563	398.81
883.869	429.45
884.174	432
884.48	388.59
884.786	375.83
885.092	432
885.397	386.04
885.703	393.7
886.009	319.65
886.314	416.68
886.62	398.81
886.925	334.97
887.231	414.13
887.536	465.19
887.841	375.83
888.146	360.51
888.452	462.64
888.757	449.87
889.062	368.17
889.367	345.18
889.672	311.99
889.977	398.81
890.282	329.86
890.587	386.04
890.892	426.89
891.196	301.78
891.501	411.57
891.806	434.55
892.11	421.79
892.415	345.18
892.72	393.7
893.024	424.34
893.328	419.23
893.633	368.17
893.937	365.61
894.242	357.95
894.546	403.91
894.85	329.86
895.154	421.79
895.458	401.36
895.762	396.25
896.066	388.59
896.37	419.23
896.674	393.7
896.978	419.23
897.282	467.75
897.586	401.36
897.89	401.36
898.193	398.81
898.497	426.89
898.801	391.15
899.104	449.87
899.408	373.27
899.711	329.86
900.014	340.08
900.318	470.3
900.621	324.76
900.924	342.63
901.228	398.81
901.531	398.81
901.834	437.11
902.137	421.79
902.44	378.38
902.743	426.89
903.046	365.61
903.349	345.18
903.652	414.13
903.955	411.57
904.257	329.86
904.56	345.18
904.863	380.93
905.165	347.74
905.468	414.13
905.77	393.7
906.073	406.47
906.375	434.55
906.678	406.47
906.98	368.17
907.282	368.17
907.584	370.72
907.887	444.77
908.189	350.29
908.491	304.33
908.793	324.76
909.095	373.27
909.397	373.27
909.699	449.87
910.001	340.08
910.302	396.25
910.604	368.17
910.906	378.38
911.208	334.97
911.509	373.27
911.811	396.25
912.112	437.11
912.414	380.93
912.715	442.21
913.017	434.55
913.318	355.4
913.619	411.57
913.92	419.23
914.222	419.23
914.523	347.74
914.824	324.76
915.125	409.02
915.426	375.83
915.727	391.15
916.028	396.25
916.329	401.36
916.63	380.93
916.93	375.83
917.231	424.34
917.532	375.83
917.832	363.06
918.133	388.59
918.434	380.93
918.734	424.34
919.034	350.29
919.335	419.23
919.635	345.18
919.935	398.81
920.236	383.49
920.536	337.52
920.836	329.86
921.136	416.68
921.436	493.28
921.736	352.84
922.036	380.93
922.336	398.81
922.636	380.93
922.936	398.81
923.236	403.91
923.535	393.7
923.835	360.51
924.135	460.09
924.434	386.04
924.734	378.38
925.033	337.52
925.333	373.27
925.632	416.68
925.932	396.25
926.231	345.18
926.53	386.04
926.83	398.81
927.129	360.51
927.428	324.76
927.727	375.83
928.026	406.47
928.325	370.72
928.624	439.66
928.923	396.25
929.222	411.57
929.52	334.97
929.819	337.52
930.118	309.44
930.417	355.4
930.715	357.95
931.014	283.9
931.312	406.47
931.611	403.91
931.909	396.25
932.207	370.72
932.506	370.72
932.804	477.96
933.102	454.98
933.401	401.36
933.699	398.81
933.997	434.55
934.295	350.29
934.593	419.23
934.891	409.02
935.189	411.57
935.487	424.34
935.784	383.49
936.082	452.43
936.38	401.36
936.677	414.13
936.975	363.06
937.273	373.27
937.57	357.95
937.868	393.7
938.165	357.95
938.463	424.34
938.76	388.59
939.057	421.79
939.354	414.13
939.652	391.15
939.949	352.84
940.246	370.72
940.543	373.27
940.84	414.13
941.137	332.42
941.434	398.81
941.731	414.13
942.028	337.52
942.324	347.74
942.621	403.91
942.918	452.43
943.214	414.13
943.511	452.43
943.807	421.79
944.104	378.38
944.4	332.42
944.697	347.74
944.993	357.95
945.29	439.66
945.586	345.18
945.882	383.49
946.178	334.97
946.474	370.72
946.77	421.79
947.066	380.93
947.362	403.91
947.658	442.21
947.954	337.52
948.25	373.27
948.546	378.38
948.842	383.49
949.137	352.84
949.433	437.11
949.729	327.31
950.024	319.65
950.32	332.42
950.615	368.17
950.91	370.72
951.206	334.97
951.501	424.34
951.796	409.02
952.092	350.29
952.387	378.38
952.682	370.72
952.977	368.17
953.272	340.08
953.567	398.81
953.862	432
954.157	414.13
954.452	375.83
954.747	383.49
955.041	447.32
955.336	306.88
955.631	383.49
955.925	401.36
956.22	419.23
956.514	462.64
956.809	437.11
957.103	342.63
957.398	373.27
957.692	375.83
957.986	337.52
958.281	294.12
958.575	388.59
958.869	439.66
959.163	386.04
959.457	345.18
959.751	406.47
960.045	375.83
960.339	365.61
960.633	380.93
960.927	370.72
961.221	421.79
961.514	467.75
961.808	380.93
962.102	393.7
962.395	388.59
962.689	311.99
962.982	391.15
963.276	398.81
963.569	429.45
963.862	401.36
964.156	393.7
964.449	357.95
964.742	386.04
965.035	452.43
965.328	434.55
965.622	352.84
965.915	391.15
966.208	401.36
966.5	322.2
966.793	403.91
967.086	449.87
967.379	368.17
967.672	347.74
967.964	388.59
968.257	352.84
968.55	360.51
968.842	350.29
969.135	360.51
969.427	350.29
969.72	373.27
970.012	337.52
970.304	434.55
970.597	398.81
970.889	383.49
971.181	398.81
971.473	380.93
971.765	368.17
972.057	396.25
972.349	403.91
972.641	360.51
972.933	414.13
973.225	462.64
973.517	365.61
973.809	460.09
974.1	368.17
974.392	424.34
974.684	388.59
974.975	324.76
975.267	365.61
975.558	309.44
975.85	383.49
976.141	329.86
976.432	386.04
976.724	411.57
977.015	337.52
977.306	347.74
977.597	388.59
977.888	365.61
978.179	357.95
978.47	462.64
978.761	421.79
979.052	426.89
979.343	386.04
979.634	462.64
979.925	357.95
980.215	378.38
980.506	345.18
980.797	365.61
981.087	444.77
981.378	309.44
981.668	345.18
981.959	345.18
982.249	386.04
982.54	388.59
982.83	347.74
983.12	401.36
983.41	365.61
983.701	380.93
983.991	324.76
984.281	360.51
984.571	342.63
984.861	406.47
985.151	368.17
985.441	309.44
985.73	378.38
986.02	342.63
986.31	370.72
986.6	350.29
986.889	388.59
987.179	319.65
987.469	347.74
987.758	429.45
988.048	373.27
988.337	396.25
988.626	388.59
988.916	340.08
989.205	421.79
989.494	409.02
989.783	319.65
990.073	406.47
990.362	388.59
990.651	419.23
990.94	309.44
991.229	352.84
991.518	396.25
991.806	370.72
992.095	442.21
992.384	357.95
992.673	393.7
992.961	314.54
993.25	337.52
993.539	393.7
993.827	457.53
994.116	373.27
994.404	380.93
994.692	370.72
994.981	373.27
995.269	391.15
995.557	398.81
995.846	414.13
996.134	363.06
996.422	368.17
996.71	393.7
996.998	334.97
997.286	357.95
997.574	398.81
997.862	329.86
998.15	363.06
998.437	360.51
998.725	350.29
999.013	380.93
999.3	388.59
999.588	383.49
999.876	393.7
1000.163	434.55
1000.45	347.74
1000.738	411.57
1001.025	347.74
1001.313	332.42
1001.6	393.7
1001.887	345.18
1002.174	342.63
1002.461	401.36
1002.748	414.13
1003.036	403.91
1003.322	375.83
1003.609	434.55
1003.896	419.23
1004.183	388.59
1004.47	357.95
1004.757	334.97
1005.043	403.91
1005.33	350.29
1005.617	375.83
1005.903	411.57
1006.19	370.72
1006.476	409.02
1006.763	419.23
1007.049	421.79
1007.335	388.59
1007.622	296.67
1007.908	401.36
1008.194	329.86
1008.48	281.35
1008.766	411.57
1009.053	426.89
1009.339	393.7
1009.625	409.02
1009.91	363.06
1010.196	357.95
1010.482	380.93
1010.768	347.74
1011.054	411.57
1011.339	439.66
1011.625	334.97
1011.911	383.49
1012.196	360.51
1012.482	393.7
1012.767	432
1013.052	467.75
1013.338	414.13
1013.623	424.34
1013.908	363.06
1014.194	383.49
1014.479	416.68
1014.764	398.81
1015.049	403.91
1015.334	378.38
1015.619	363.06
1015.904	396.25
1016.189	345.18
1016.474	337.52
1016.758	294.12
1017.043	368.17
1017.328	386.04
1017.613	396.25
1017.897	370.72
1018.182	360.51
1018.466	334.97
1018.751	406.47
1019.035	380.93
1019.32	337.52
1019.604	322.2
1019.888	350.29
1020.172	350.29
1020.457	350.29
