Data from 2025-12-03_xpw_interference_micrometer_634_reference_FLMS141361__175__425.txt Node

Date: Wed Dec 03 15:51:30 MST 2025
User: james
Spectrometer: FLMS14136
Trigger mode: 0
Integration Time (sec): 1.000000E-1
Scans to average: 1
Electric dark correction enabled: true
Nonlinearity correction enabled: false
Boxcar width: 0
XAxis mode: Wavelengths
Number of Pixels in Spectrum: 2048
>>>>>Begin Spectral Data<<<<<
339.315	-7.66
339.697	-7.66
340.079	-7.66
340.461	-74.05
340.843	-117.46
341.225	-76.6
341.607	-130.22
341.989	-137.88
342.371	-114.9
342.752	-40.85
343.134	-61.28
343.516	-15.32
343.897	-71.49
344.279	-2.55
344.661	17.87
345.042	63.83
345.423	102.14
345.805	74.05
346.186	130.22
346.567	84.26
346.949	178.74
347.33	125.12
347.711	188.95
348.092	268.1
348.473	219.59
348.854	214.48
349.235	234.91
349.616	270.66
349.997	296.19
350.378	331.94
350.758	354.92
351.139	293.64
351.52	296.19
351.9	334.49
352.281	352.37
352.661	360.03
353.042	293.64
353.422	365.13
353.803	370.24
354.183	398.33
354.563	418.75
354.943	385.56
355.324	411.09
355.704	326.83
356.084	360.03
356.464	360.03
356.844	472.37
357.224	337.05
357.603	354.92
357.983	291.09
358.363	434.07
358.743	398.33
359.122	375.35
359.502	360.03
359.882	418.75
360.261	331.94
360.641	405.99
361.02	405.99
361.399	403.43
361.779	354.92
362.158	342.15
362.537	370.24
362.916	360.03
363.296	357.47
363.675	324.28
364.054	321.73
364.433	347.26
364.812	342.15
365.19	283.42
365.569	344.71
365.948	367.69
366.327	339.6
366.705	347.26
367.084	380.45
367.463	405.99
367.841	319.17
368.22	342.15
368.598	354.92
368.977	357.47
369.355	339.6
369.733	270.66
370.111	342.15
370.49	334.49
370.868	421.31
371.246	275.76
371.624	296.19
372.002	347.26
372.38	360.03
372.758	393.22
373.136	354.92
373.513	365.13
373.891	349.81
374.269	316.62
374.646	337.05
375.024	390.67
375.402	375.35
375.779	418.75
376.157	314.07
376.534	308.96
376.911	342.15
377.289	354.92
377.666	319.17
378.043	365.13
378.42	347.26
378.797	347.26
379.175	380.45
379.552	275.76
379.929	370.24
380.305	405.99
380.682	405.99
381.059	377.9
381.436	288.53
381.813	388.11
382.189	349.81
382.566	298.75
382.943	339.6
383.319	362.58
383.696	370.24
384.072	331.94
384.448	326.83
384.825	398.33
385.201	326.83
385.577	434.07
385.953	383.01
386.329	375.35
386.706	349.81
387.082	436.63
387.458	377.9
387.834	301.3
388.209	375.35
388.585	347.26
388.961	370.24
389.337	354.92
389.713	388.11
390.088	400.88
390.464	385.56
390.839	301.3
391.215	354.92
391.59	360.03
391.966	321.73
392.341	390.67
392.716	377.9
393.092	324.28
393.467	357.47
393.842	347.26
394.217	326.83
394.592	380.45
394.967	329.39
395.342	446.84
395.717	451.95
396.092	390.67
396.467	352.37
396.841	383.01
397.216	431.52
397.591	372.79
397.965	383.01
398.34	311.51
398.714	352.37
399.089	306.41
399.463	296.19
399.838	347.26
400.212	372.79
400.586	398.33
400.961	375.35
401.335	375.35
401.709	416.2
402.083	413.65
402.457	349.81
402.831	344.71
403.205	467.27
403.579	411.09
403.953	291.09
404.326	362.58
404.7	385.56
405.074	349.81
405.447	393.22
405.821	423.86
406.195	342.15
406.568	411.09
406.942	474.93
407.315	377.9
407.688	377.9
408.062	316.62
408.435	367.69
408.808	403.43
409.181	360.03
409.554	344.71
409.927	431.52
410.3	457.05
410.673	398.33
411.046	403.43
411.419	354.92
411.792	434.07
412.165	426.41
412.537	446.84
412.91	377.9
413.283	421.31
413.655	362.58
414.028	395.77
414.4	360.03
414.773	441.73
415.145	352.37
415.517	388.11
415.889	354.92
416.262	418.75
416.634	352.37
417.006	306.41
417.378	395.77
417.75	360.03
418.122	380.45
418.494	408.54
418.866	421.31
419.238	370.24
419.609	423.86
419.981	408.54
420.353	405.99
420.725	403.43
421.096	408.54
421.468	428.97
421.839	426.41
422.211	360.03
422.582	383.01
422.953	411.09
423.325	324.28
423.696	426.41
424.067	418.75
424.438	367.69
424.809	459.61
425.18	339.6
425.551	380.45
425.922	380.45
426.293	405.99
426.664	411.09
427.035	464.71
427.406	393.22
427.776	418.75
428.147	436.63
428.518	326.83
428.888	331.94
429.259	434.07
429.629	431.52
429.999	446.84
430.37	457.05
430.74	449.39
431.11	439.18
431.481	510.68
431.851	395.77
432.221	395.77
432.591	370.24
432.961	421.31
433.331	405.99
433.701	405.99
434.071	416.2
434.441	418.75
434.81	383.01
435.18	400.88
435.55	324.28
435.919	436.63
436.289	375.35
436.658	388.11
437.028	377.9
437.397	365.13
437.767	385.56
438.136	426.41
438.505	375.35
438.875	344.71
439.244	400.88
439.613	390.67
439.982	451.95
440.351	411.09
440.72	354.92
441.089	398.33
441.458	362.58
441.827	418.75
442.196	418.75
442.564	533.66
442.933	457.05
443.302	377.9
443.67	431.52
444.039	426.41
444.407	418.75
444.776	380.45
445.144	380.45
445.513	403.43
445.881	329.39
446.249	370.24
446.617	434.07
446.986	444.29
447.354	449.39
447.722	388.11
448.09	377.9
448.458	393.22
448.826	418.75
449.194	467.27
449.561	390.67
449.929	441.73
450.297	352.37
450.665	349.81
451.032	400.88
451.4	393.22
451.767	372.79
452.135	383.01
452.502	321.73
452.87	352.37
453.237	408.54
453.604	418.75
453.971	464.71
454.339	362.58
454.706	393.22
455.073	431.52
455.44	395.77
455.807	398.33
456.174	428.97
456.541	377.9
456.908	454.5
457.274	400.88
457.641	390.67
458.008	487.7
458.374	416.2
458.741	413.65
459.108	393.22
459.474	434.07
459.841	431.52
460.207	421.31
460.573	413.65
460.94	383.01
461.306	459.61
461.672	377.9
462.038	403.43
462.404	337.05
462.771	337.05
463.137	370.24
463.503	446.84
463.868	408.54
464.234	344.71
464.6	411.09
464.966	469.82
465.332	446.84
465.697	446.84
466.063	385.56
466.429	337.05
466.794	390.67
467.16	457.05
467.525	457.05
467.89	472.37
468.256	360.03
468.621	352.37
468.986	390.67
469.351	365.13
469.717	377.9
470.082	413.65
470.447	393.22
470.812	434.07
471.177	441.73
471.542	441.73
471.906	444.29
472.271	439.18
472.636	439.18
473.001	321.73
473.365	444.29
473.73	377.9
474.094	421.31
474.459	431.52
474.823	367.69
475.188	413.65
475.552	390.67
475.917	413.65
476.281	367.69
476.645	395.77
477.009	423.86
477.373	408.54
477.737	398.33
478.101	482.59
478.465	395.77
478.829	418.75
479.193	411.09
479.557	431.52
479.921	331.94
480.284	416.2
480.648	426.41
481.012	434.07
481.375	439.18
481.739	434.07
482.102	482.59
482.466	411.09
482.829	444.29
483.193	482.59
483.556	434.07
483.919	347.26
484.282	337.05
484.645	439.18
485.009	372.79
485.372	454.5
485.735	400.88
486.098	380.45
486.46	390.67
486.823	362.58
487.186	372.79
487.549	459.61
487.912	490.25
488.274	388.11
488.637	357.47
488.999	362.58
489.362	472.37
489.724	405.99
490.087	451.95
490.449	405.99
490.811	413.65
491.174	423.86
491.536	360.03
491.898	428.97
492.26	405.99
492.622	490.25
492.984	480.04
493.346	469.82
493.708	436.63
494.07	411.09
494.432	421.31
494.794	411.09
495.155	390.67
495.517	426.41
495.879	418.75
496.24	357.47
496.602	372.79
496.963	449.39
497.325	375.35
497.686	421.31
498.048	308.96
498.409	347.26
498.77	354.92
499.131	390.67
499.492	469.82
499.854	428.97
500.215	446.84
500.576	354.92
500.937	413.65
501.298	462.16
501.658	421.31
502.019	395.77
502.38	416.2
502.741	418.75
503.101	464.71
503.462	449.39
503.823	457.05
504.183	324.28
504.543	467.27
504.904	444.29
505.264	339.6
505.625	329.39
505.985	365.13
506.345	431.52
506.705	418.75
507.065	342.15
507.426	393.22
507.786	462.16
508.146	408.54
508.505	400.88
508.865	377.9
509.225	388.11
509.585	377.9
509.945	395.77
510.304	388.11
510.664	375.35
511.024	354.92
511.383	411.09
511.743	421.31
512.102	457.05
512.462	431.52
512.821	426.41
513.18	337.05
513.539	347.26
513.899	416.2
514.258	393.22
514.617	405.99
514.976	395.77
515.335	390.67
515.694	446.84
516.053	388.11
516.412	370.24
516.771	446.84
517.129	403.43
517.488	365.13
517.847	411.09
518.205	454.5
518.564	492.8
518.922	464.71
519.281	395.77
519.639	408.54
519.998	393.22
520.356	423.86
520.714	469.82
521.073	411.09
521.431	426.41
521.789	454.5
522.147	439.18
522.505	400.88
522.863	393.22
523.221	390.67
523.579	383.01
523.937	421.31
524.295	403.43
524.652	342.15
525.01	408.54
525.368	418.75
525.725	377.9
526.083	383.01
526.44	428.97
526.798	400.88
527.155	395.77
527.513	385.56
527.87	413.65
528.227	395.77
528.584	393.22
528.942	421.31
529.299	446.84
529.656	377.9
530.013	375.35
530.37	408.54
530.727	423.86
531.083	375.35
531.44	411.09
531.797	370.24
532.154	411.09
532.511	372.79
532.867	375.35
533.224	357.47
533.58	428.97
533.937	377.9
534.293	352.37
534.65	375.35
535.006	395.77
535.362	390.67
535.718	390.67
536.075	444.29
536.431	457.05
536.787	390.67
537.143	454.5
537.499	388.11
537.855	408.54
538.211	400.88
538.567	459.61
538.923	423.86
539.278	426.41
539.634	390.67
539.99	367.69
540.345	370.24
540.701	418.75
541.056	436.63
541.412	408.54
541.767	390.67
542.123	367.69
542.478	451.95
542.833	370.24
543.188	421.31
543.544	418.75
543.899	446.84
544.254	388.11
544.609	454.5
544.964	372.79
545.319	421.31
545.674	416.2
546.029	339.6
546.383	383.01
546.738	449.39
547.093	377.9
547.447	385.56
547.802	439.18
548.157	326.83
548.511	416.2
548.866	462.16
549.22	416.2
549.574	395.77
549.929	441.73
550.283	487.7
550.637	454.5
550.991	354.92
551.345	385.56
551.699	398.33
552.053	395.77
552.407	459.61
552.761	395.77
553.115	395.77
553.469	426.41
553.823	400.88
554.176	451.95
554.53	482.59
554.884	395.77
555.237	620.47
555.591	393.22
555.944	444.29
556.298	423.86
556.651	405.99
557.005	421.31
557.358	413.65
557.711	464.71
558.064	413.65
558.417	365.13
558.771	480.04
559.124	434.07
559.477	398.33
559.83	413.65
560.182	462.16
560.535	451.95
560.888	413.65
561.241	421.31
561.594	459.61
561.946	377.9
562.299	357.47
562.651	459.61
563.004	377.9
563.356	421.31
563.709	365.13
564.061	416.2
564.413	416.2
564.766	390.67
565.118	311.51
565.47	365.13
565.822	421.31
566.174	436.63
566.526	388.11
566.878	474.93
567.23	390.67
567.582	428.97
567.934	411.09
568.286	497.91
568.638	413.65
568.989	372.79
569.341	395.77
569.693	418.75
570.044	354.92
570.396	454.5
570.747	423.86
571.098	385.56
571.45	431.52
571.801	421.31
572.152	418.75
572.504	428.97
572.855	426.41
573.206	331.94
573.557	403.43
573.908	446.84
574.259	421.31
574.61	441.73
574.961	439.18
575.311	413.65
575.662	360.03
576.013	428.97
576.364	377.9
576.714	400.88
577.065	423.86
577.415	469.82
577.766	385.56
578.116	467.27
578.467	449.39
578.817	423.86
579.167	421.31
579.518	441.73
579.868	421.31
580.218	365.13
580.568	418.75
580.918	469.82
581.268	377.9
581.618	434.07
581.968	400.88
582.318	431.52
582.668	462.16
583.017	380.45
583.367	464.71
583.717	454.5
584.066	531.1
584.416	383.01
584.765	316.62
585.115	423.86
585.464	388.11
585.814	477.48
586.163	321.73
586.512	344.71
586.862	357.47
587.211	426.41
587.56	390.67
587.909	367.69
588.258	405.99
588.607	344.71
588.956	451.95
589.305	357.47
589.654	344.71
590.002	426.41
590.351	431.52
590.7	434.07
591.048	411.09
591.397	421.31
591.746	385.56
592.094	464.71
592.443	388.11
592.791	428.97
593.139	398.33
593.488	421.31
593.836	362.58
594.184	400.88
594.532	441.73
594.88	487.7
595.228	398.33
595.576	444.29
595.924	464.71
596.272	469.82
596.62	416.2
596.968	411.09
597.316	423.86
597.664	398.33
598.011	395.77
598.359	395.77
598.706	418.75
599.054	423.86
599.402	416.2
599.749	451.95
600.096	395.77
600.444	390.67
600.791	367.69
601.138	436.63
601.485	428.97
601.833	405.99
602.18	393.22
602.527	293.64
602.874	334.49
603.221	380.45
603.568	416.2
603.914	444.29
604.261	405.99
604.608	400.88
604.955	367.69
605.301	360.03
605.648	439.18
605.995	395.77
606.341	372.79
606.688	375.35
607.034	372.79
607.38	375.35
607.727	365.13
608.073	377.9
608.419	354.92
608.765	423.86
609.112	446.84
609.458	411.09
609.804	457.05
610.15	472.37
610.496	413.65
610.842	451.95
611.187	526
611.533	497.91
611.879	469.82
612.225	337.05
612.57	367.69
612.916	408.54
613.261	426.41
613.607	411.09
613.952	451.95
614.298	441.73
614.643	467.27
614.989	354.92
615.334	362.58
615.679	408.54
616.024	474.93
616.369	457.05
616.714	421.31
617.059	459.61
617.404	426.41
617.749	428.97
618.094	400.88
618.439	459.61
618.784	380.45
619.129	395.77
619.473	405.99
619.818	377.9
620.163	421.31
620.507	383.01
620.852	421.31
621.196	405.99
621.54	405.99
621.885	357.47
622.229	408.54
622.573	398.33
622.918	421.31
623.262	441.73
623.606	365.13
623.95	436.63
624.294	426.41
624.638	490.25
624.982	321.73
625.326	365.13
625.67	395.77
626.013	390.67
626.357	354.92
626.701	388.11
627.044	349.81
627.388	395.77
627.731	418.75
628.075	436.63
628.418	334.49
628.762	367.69
629.105	334.49
629.448	365.13
629.792	400.88
630.135	411.09
630.478	457.05
630.821	436.63
631.164	421.31
631.507	357.47
631.85	357.47
632.193	400.88
632.536	416.2
632.879	403.43
633.221	411.09
633.564	451.95
633.907	403.43
634.249	390.67
634.592	383.01
634.935	413.65
635.277	393.22
635.619	388.11
635.962	464.71
636.304	383.01
636.646	474.93
636.989	383.01
637.331	395.77
637.673	388.11
638.015	403.43
638.357	408.54
638.699	423.86
639.041	441.73
639.383	431.52
639.725	372.79
640.067	431.52
640.408	449.39
640.75	372.79
641.092	388.11
641.433	383.01
641.775	331.94
642.116	349.81
642.458	393.22
642.799	390.67
643.141	398.33
643.482	434.07
643.823	413.65
644.164	449.39
644.506	474.93
644.847	477.48
645.188	357.47
645.529	393.22
645.87	400.88
646.211	500.46
646.552	421.31
646.893	385.56
647.233	434.07
647.574	383.01
647.915	436.63
648.255	362.58
648.596	416.2
648.937	428.97
649.277	383.01
649.618	385.56
649.958	393.22
650.298	360.03
650.639	426.41
650.979	413.65
651.319	411.09
651.659	352.37
651.999	393.22
652.339	426.41
652.679	474.93
653.019	444.29
653.359	428.97
653.699	372.79
654.039	451.95
654.379	367.69
654.719	449.39
655.058	421.31
655.398	393.22
655.737	454.5
656.077	405.99
656.416	462.16
656.756	413.65
657.095	434.07
657.435	418.75
657.774	349.81
658.113	454.5
658.452	423.86
658.792	372.79
659.131	385.56
659.47	372.79
659.809	337.05
660.148	454.5
660.487	413.65
660.826	349.81
661.164	352.37
661.503	421.31
661.842	393.22
662.181	367.69
662.519	372.79
662.858	408.54
663.196	367.69
663.535	398.33
663.873	400.88
664.212	403.43
664.55	436.63
664.888	416.2
665.226	380.45
665.565	321.73
665.903	582.17
666.241	411.09
666.579	405.99
666.917	434.07
667.255	398.33
667.593	467.27
667.931	495.36
668.268	405.99
668.606	383.01
668.944	390.67
669.282	431.52
669.619	398.33
669.957	380.45
670.294	388.11
670.632	352.37
670.969	428.97
671.307	395.77
671.644	398.33
671.981	431.52
672.318	357.47
672.656	411.09
672.993	385.56
673.33	339.6
673.667	372.79
674.004	324.28
674.341	408.54
674.678	375.35
675.015	423.86
675.351	383.01
675.688	380.45
676.025	416.2
676.362	421.31
676.698	398.33
677.035	449.39
677.371	403.43
677.708	436.63
678.044	388.11
678.38	416.2
678.717	380.45
679.053	398.33
679.389	416.2
679.725	441.73
680.062	405.99
680.398	388.11
680.734	416.2
681.07	400.88
681.406	383.01
681.742	436.63
682.077	375.35
682.413	344.71
682.749	408.54
683.085	439.18
683.42	395.77
683.756	390.67
684.091	354.92
684.427	400.88
684.762	441.73
685.098	400.88
685.433	383.01
685.768	426.41
686.104	377.9
686.439	383.01
686.774	423.86
687.109	331.94
687.444	390.67
687.779	441.73
688.114	398.33
688.449	398.33
688.784	418.75
689.119	444.29
689.454	377.9
689.789	416.2
690.123	288.53
690.458	329.39
690.792	413.65
691.127	446.84
691.461	400.88
691.796	408.54
692.13	383.01
692.465	347.26
692.799	380.45
693.133	357.47
693.467	365.13
693.802	362.58
694.136	354.92
694.47	316.62
694.804	503.02
695.138	451.95
695.472	408.54
695.806	354.92
696.139	385.56
696.473	408.54
696.807	485.14
697.141	390.67
697.474	431.52
697.808	446.84
698.141	426.41
698.475	480.04
698.808	454.5
699.142	377.9
699.475	395.77
699.808	395.77
700.142	467.27
700.475	408.54
700.808	411.09
701.141	431.52
701.474	441.73
701.807	451.95
702.14	451.95
702.473	367.69
702.806	403.43
703.139	428.97
703.472	469.82
703.804	393.22
704.137	405.99
704.47	459.61
704.802	365.13
705.135	416.2
705.467	408.54
705.8	416.2
706.132	365.13
706.464	349.81
706.797	308.96
707.129	354.92
707.461	441.73
707.793	431.52
708.125	388.11
708.457	377.9
708.789	375.35
709.121	372.79
709.453	342.15
709.785	334.49
710.117	349.81
710.449	375.35
710.781	413.65
711.112	434.07
711.444	390.67
711.775	474.93
712.107	395.77
712.438	474.93
712.77	372.79
713.101	403.43
713.433	403.43
713.764	385.56
714.095	357.47
714.426	413.65
714.757	393.22
715.089	403.43
715.42	411.09
715.751	395.77
716.082	357.47
716.412	347.26
716.743	326.83
717.074	372.79
717.405	431.52
717.736	457.05
718.066	395.77
718.397	411.09
718.727	377.9
719.058	383.01
719.388	365.13
719.719	431.52
720.049	413.65
720.38	436.63
720.71	413.65
721.04	426.41
721.37	388.11
721.7	413.65
722.031	416.2
722.361	469.82
722.691	390.67
723.021	385.56
723.35	357.47
723.68	395.77
724.01	411.09
724.34	357.47
724.67	436.63
724.999	421.31
725.329	436.63
725.658	372.79
725.988	451.95
726.317	385.56
726.647	408.54
726.976	497.91
727.306	464.71
727.635	372.79
727.964	380.45
728.293	405.99
728.622	441.73
728.952	413.65
729.281	413.65
729.61	434.07
729.939	360.03
730.267	342.15
730.596	383.01
730.925	428.97
731.254	418.75
731.583	434.07
731.911	362.58
732.24	342.15
732.568	400.88
732.897	405.99
733.225	403.43
733.554	362.58
733.882	367.69
734.21	439.18
734.539	436.63
734.867	367.69
735.195	326.83
735.523	405.99
735.851	441.73
736.179	411.09
736.507	385.56
736.835	421.31
737.163	411.09
737.491	311.51
737.819	352.37
738.147	405.99
738.474	408.54
738.802	372.79
739.13	428.97
739.457	326.83
739.785	349.81
740.112	354.92
740.44	362.58
740.767	380.45
741.094	411.09
741.422	367.69
741.749	405.99
742.076	413.65
742.403	413.65
742.73	434.07
743.057	385.56
743.384	385.56
743.711	403.43
744.038	413.65
744.365	403.43
744.692	405.99
745.018	411.09
745.345	377.9
745.672	428.97
745.998	403.43
746.325	370.24
746.651	372.79
746.978	380.45
747.304	370.24
747.631	367.69
747.957	393.22
748.283	418.75
748.61	408.54
748.936	367.69
749.262	411.09
749.588	377.9
749.914	375.35
750.24	405.99
750.566	457.05
750.892	403.43
751.218	426.41
751.543	426.41
751.869	426.41
752.195	380.45
752.521	428.97
752.846	411.09
753.172	329.39
753.497	375.35
753.823	388.11
754.148	441.73
754.473	423.86
754.799	418.75
755.124	339.6
755.449	416.2
755.774	444.29
756.1	428.97
756.425	457.05
756.75	413.65
757.075	451.95
757.4	500.46
757.724	472.37
758.049	446.84
758.374	393.22
758.699	403.43
759.024	446.84
759.348	347.26
759.673	400.88
759.997	418.75
760.322	423.86
760.646	441.73
760.971	416.2
761.295	403.43
761.619	446.84
761.944	464.71
762.268	464.71
762.592	416.2
762.916	408.54
763.24	446.84
763.564	454.5
763.888	526
764.212	518.34
764.536	605.15
764.86	594.94
765.184	571.96
765.508	582.17
765.831	615.36
766.155	832.4
766.478	725.16
766.802	686.86
767.126	737.93
767.449	755.8
767.772	873.26
768.096	901.34
768.419	893.68
768.742	888.58
769.066	1018.8
769.389	1016.24
769.712	1097.95
770.035	1062.21
770.358	1131.15
770.681	1233.28
771.004	1164.34
771.327	1220.51
771.65	1289.46
771.972	1350.74
772.295	1422.23
772.618	1427.34
772.941	1424.78
773.263	1389.04
773.586	1404.36
773.908	1567.77
774.231	1606.07
774.553	1680.12
774.875	1820.56
775.198	1894.61
775.52	1828.22
775.842	1777.15
776.164	1838.43
776.487	1853.75
776.809	1930.35
777.131	1708.21
777.453	1897.16
777.775	1846.09
778.096	1996.74
778.418	2019.72
778.74	2022.28
779.062	1927.8
779.384	1994.19
779.705	2318.47
780.027	2566.14
780.348	2683.6
780.67	2571.25
780.991	2681.05
781.313	2908.3
781.634	3007.88
781.955	2913.4
782.277	2647.85
782.598	2737.22
782.919	2755.09
783.24	2737.22
783.561	2829.14
783.882	2844.46
784.203	2673.39
784.524	2755.09
784.845	2637.64
785.166	2504.86
785.487	2548.27
785.807	2596.79
786.128	2550.82
786.449	2532.95
786.769	2681.05
787.09	2778.08
787.41	2798.5
787.731	3117.67
788.051	3209.6
788.372	3344.93
788.692	3572.18
789.012	3628.35
789.332	3758.57
789.653	3809.64
789.973	3973.06
790.293	3725.38
790.613	3436.85
790.933	3255.56
791.253	3097.25
791.573	2913.4
791.893	2841.91
792.212	2675.94
792.532	2550.82
792.852	2568.7
793.171	2410.39
793.491	2338.89
793.811	2412.94
794.13	2525.29
794.45	2476.78
794.769	2402.73
795.088	2622.32
795.408	2594.23
795.727	2849.57
796.046	2711.69
796.365	2686.15
796.684	2555.93
797.004	2377.19
797.323	2504.86
797.642	2655.51
797.96	2841.91
798.279	2798.5
798.598	2566.14
798.917	2492.1
799.236	2397.62
799.554	2318.47
799.873	2157.6
800.192	2139.73
800.51	2157.6
800.829	2157.6
801.147	2203.57
801.466	2032.49
801.784	1925.25
802.102	1940.57
802.421	2042.7
802.739	2172.92
803.057	2132.07
803.375	1833.33
803.693	1835.88
804.011	1876.73
804.329	2111.64
804.647	2101.43
804.965	2022.28
805.283	1958.44
805.601	1856.31
805.918	1856.31
806.236	1759.28
806.554	1682.68
806.871	1723.53
807.189	1876.73
807.507	1846.09
807.824	1782.26
808.141	1570.33
808.459	1396.7
808.776	1371.16
809.093	1238.39
809.411	1138.81
809.728	1161.79
810.045	1095.4
810.362	1184.77
810.679	1138.81
810.996	1169.45
811.313	1335.42
811.63	1302.22
811.947	1228.17
812.264	1189.87
812.58	1087.74
812.897	1095.4
813.214	1235.83
813.53	1292.01
813.847	1189.87
814.163	1256.26
814.48	1169.45
814.796	1110.72
815.113	1159.23
815.429	1118.38
815.745	1013.69
816.061	1062.21
816.378	947.3
816.694	929.43
817.01	1036.67
817.326	1031.56
817.642	1029.01
817.958	891.13
818.274	860.49
818.59	801.76
818.905	768.57
819.221	794.1
819.537	771.12
819.852	760.91
820.168	806.87
820.484	811.97
820.799	748.14
821.115	842.61
821.43	699.63
821.745	834.95
822.061	755.8
822.376	832.4
822.691	837.51
823.006	766.01
823.322	763.46
823.637	732.82
823.952	704.73
824.267	646
824.582	605.15
824.897	594.94
825.211	712.39
825.526	661.32
825.841	628.13
826.156	633.24
826.47	628.13
826.785	615.36
827.1	615.36
827.414	546.42
827.729	594.94
828.043	592.38
828.357	607.7
828.672	541.32
828.986	561.74
829.3	597.49
829.614	656.22
829.929	587.28
830.243	569.4
830.557	564.3
830.871	566.85
831.185	520.89
831.499	561.74
831.812	528.55
832.126	592.38
832.44	592.38
832.754	564.3
833.067	513.23
833.381	487.7
833.695	482.59
834.008	487.7
834.322	454.5
834.635	403.43
834.948	487.7
835.262	454.5
835.575	508.12
835.888	444.29
836.201	454.5
836.515	446.84
836.828	480.04
837.141	477.48
837.454	464.71
837.767	454.5
838.08	492.8
838.392	446.84
838.705	436.63
839.018	454.5
839.331	423.86
839.643	459.61
839.956	457.05
840.269	441.73
840.581	434.07
840.894	428.97
841.206	416.2
841.519	605.15
841.831	464.71
842.143	383.01
842.455	416.2
842.768	426.41
843.08	434.07
843.392	403.43
843.704	388.11
844.016	416.2
844.328	446.84
844.64	408.54
844.952	418.75
845.263	416.2
845.575	416.2
845.887	400.88
846.199	385.56
846.51	360.03
846.822	375.35
847.133	411.09
847.445	367.69
847.756	370.24
848.068	428.97
848.379	370.24
848.69	428.97
849.002	467.27
849.313	367.69
849.624	405.99
849.935	434.07
850.246	405.99
850.557	390.67
850.868	385.56
851.179	457.05
851.49	454.5
851.801	380.45
852.112	301.3
852.422	370.24
852.733	385.56
853.044	423.86
853.354	388.11
853.665	377.9
853.975	439.18
854.286	385.56
854.596	449.39
854.906	416.2
855.217	395.77
855.527	395.77
855.837	349.81
856.147	416.2
856.458	360.03
856.768	405.99
857.078	380.45
857.388	398.33
857.698	375.35
858.007	393.22
858.317	451.95
858.627	357.47
858.937	436.63
859.246	390.67
859.556	418.75
859.866	362.58
860.175	314.07
860.485	400.88
860.794	326.83
861.104	370.24
861.413	342.15
861.722	441.73
862.032	403.43
862.341	421.31
862.65	337.05
862.959	403.43
863.268	449.39
863.577	439.18
863.886	408.54
864.195	334.49
864.504	403.43
864.813	360.03
865.122	354.92
865.43	472.37
865.739	426.41
866.048	403.43
866.356	403.43
866.665	405.99
866.973	449.39
867.282	375.35
867.59	367.69
867.899	337.05
868.207	380.45
868.515	375.35
868.823	390.67
869.132	390.67
869.44	446.84
869.748	423.86
870.056	416.2
870.364	444.29
870.672	388.11
870.98	411.09
871.288	347.26
871.595	416.2
871.903	454.5
872.211	390.67
872.518	367.69
872.826	405.99
873.134	411.09
873.441	434.07
873.749	398.33
874.056	457.05
874.363	411.09
874.671	383.01
874.978	469.82
875.285	380.45
875.592	365.13
875.9	413.65
876.207	454.5
876.514	370.24
876.821	367.69
877.128	344.71
877.435	388.11
877.741	398.33
878.048	408.54
878.355	380.45
878.662	349.81
878.968	395.77
879.275	400.88
879.582	446.84
879.888	444.29
880.195	377.9
880.501	411.09
880.807	357.47
881.114	319.17
881.42	367.69
881.726	431.52
882.032	413.65
882.339	375.35
882.645	367.69
882.951	421.31
883.257	418.75
883.563	408.54
883.869	426.41
884.174	446.84
884.48	372.79
884.786	370.24
885.092	344.71
885.397	416.2
885.703	339.6
886.009	372.79
886.314	418.75
886.62	446.84
886.925	375.35
887.231	377.9
887.536	337.05
887.841	395.77
888.146	446.84
888.452	375.35
888.757	390.67
889.062	329.39
889.367	365.13
889.672	390.67
889.977	421.31
890.282	444.29
890.587	377.9
890.892	380.45
891.196	398.33
891.501	469.82
891.806	403.43
892.11	405.99
892.415	352.37
892.72	365.13
893.024	441.73
893.328	531.1
893.633	395.77
893.937	454.5
894.242	349.81
894.546	403.43
894.85	421.31
895.154	411.09
895.458	408.54
895.762	388.11
896.066	413.65
896.37	423.86
896.674	444.29
896.978	375.35
897.282	405.99
897.586	434.07
897.89	367.69
898.193	413.65
898.497	411.09
898.801	411.09
899.104	418.75
899.408	375.35
899.711	408.54
900.014	459.61
900.318	413.65
900.621	370.24
900.924	416.2
901.228	416.2
901.531	411.09
901.834	372.79
902.137	377.9
902.44	385.56
902.743	339.6
903.046	377.9
903.349	439.18
903.652	405.99
903.955	426.41
904.257	311.51
904.56	380.45
904.863	375.35
905.165	370.24
905.468	395.77
905.77	449.39
906.073	408.54
906.375	426.41
906.678	383.01
906.98	354.92
907.282	385.56
907.584	380.45
907.887	405.99
908.189	454.5
908.491	385.56
908.793	431.52
909.095	347.26
909.397	360.03
909.699	454.5
910.001	400.88
910.302	408.54
910.604	400.88
910.906	388.11
911.208	398.33
911.509	403.43
911.811	390.67
912.112	428.97
912.414	472.37
912.715	426.41
913.017	372.79
913.318	449.39
913.619	400.88
913.92	413.65
914.222	431.52
914.523	474.93
914.824	354.92
915.125	408.54
915.426	418.75
915.727	398.33
916.028	357.47
916.329	319.17
916.63	354.92
916.93	446.84
917.231	380.45
917.532	375.35
917.832	423.86
918.133	380.45
918.434	324.28
918.734	301.3
919.034	349.81
919.335	428.97
919.635	418.75
919.935	405.99
920.236	357.47
920.536	372.79
920.836	365.13
921.136	400.88
921.436	436.63
921.736	375.35
922.036	377.9
922.336	390.67
922.636	383.01
922.936	395.77
923.236	390.67
923.535	421.31
923.835	413.65
924.135	352.37
924.434	436.63
924.734	372.79
925.033	413.65
925.333	362.58
925.632	383.01
925.932	431.52
926.231	377.9
926.53	347.26
926.83	372.79
927.129	357.47
927.428	372.79
927.727	416.2
928.026	416.2
928.325	403.43
928.624	365.13
928.923	398.33
929.222	457.05
929.52	349.81
929.819	383.01
930.118	370.24
930.417	395.77
930.715	360.03
931.014	408.54
931.312	413.65
931.611	352.37
931.909	365.13
932.207	444.29
932.506	441.73
932.804	439.18
933.102	377.9
933.401	421.31
933.699	372.79
933.997	388.11
934.295	405.99
934.593	462.16
934.891	413.65
935.189	383.01
935.487	411.09
935.784	375.35
936.082	449.39
936.38	377.9
936.677	459.61
936.975	398.33
937.273	451.95
937.57	385.56
937.868	426.41
938.165	390.67
938.463	390.67
938.76	383.01
939.057	390.67
939.354	370.24
939.652	367.69
939.949	393.22
940.246	347.26
940.543	413.65
940.84	357.47
941.137	360.03
941.434	408.54
941.731	436.63
942.028	383.01
942.324	334.49
942.621	408.54
942.918	365.13
943.214	400.88
943.511	352.37
943.807	405.99
944.104	360.03
944.4	411.09
944.697	362.58
944.993	459.61
945.29	354.92
945.586	362.58
945.882	352.37
946.178	357.47
946.474	370.24
946.77	365.13
947.066	428.97
947.362	367.69
947.658	385.56
947.954	377.9
948.25	349.81
948.546	462.16
948.842	380.45
949.137	370.24
949.433	416.2
949.729	326.83
950.024	377.9
950.32	444.29
950.615	413.65
950.91	421.31
951.206	426.41
951.501	436.63
951.796	367.69
952.092	331.94
952.387	388.11
952.682	421.31
952.977	339.6
953.272	283.42
953.567	393.22
953.862	375.35
954.157	413.65
954.452	393.22
954.747	487.7
955.041	408.54
955.336	314.07
955.631	362.58
955.925	408.54
956.22	375.35
956.514	365.13
956.809	416.2
957.103	398.33
957.398	344.71
957.692	314.07
957.986	354.92
958.281	354.92
958.575	426.41
958.869	441.73
959.163	426.41
959.457	349.81
959.751	400.88
960.045	380.45
960.339	398.33
960.633	375.35
960.927	444.29
961.221	434.07
961.514	388.11
961.808	395.77
962.102	416.2
962.395	454.5
962.689	434.07
962.982	467.27
963.276	349.81
963.569	329.39
963.862	383.01
964.156	413.65
964.449	360.03
964.742	383.01
965.035	403.43
965.328	367.69
965.622	393.22
965.915	357.47
966.208	454.5
966.5	296.19
966.793	395.77
967.086	398.33
967.379	380.45
967.672	398.33
967.964	370.24
968.257	436.63
968.55	405.99
968.842	367.69
969.135	365.13
969.427	321.73
969.72	390.67
970.012	411.09
970.304	426.41
970.597	411.09
970.889	383.01
971.181	372.79
971.473	362.58
971.765	354.92
972.057	383.01
972.349	449.39
972.641	398.33
972.933	418.75
973.225	360.03
973.517	418.75
973.809	416.2
974.1	421.31
974.392	385.56
974.684	377.9
974.975	400.88
975.267	365.13
975.558	413.65
975.85	395.77
976.141	354.92
976.432	367.69
976.724	354.92
977.015	393.22
977.306	411.09
977.597	375.35
977.888	400.88
978.179	385.56
978.47	362.58
978.761	439.18
979.052	370.24
979.343	377.9
979.634	375.35
979.925	434.07
980.215	441.73
980.506	403.43
980.797	370.24
981.087	339.6
981.378	454.5
981.668	383.01
981.959	367.69
982.249	428.97
982.54	423.86
982.83	398.33
983.12	434.07
983.41	365.13
983.701	385.56
983.991	413.65
984.281	298.75
984.571	418.75
984.861	354.92
985.151	426.41
985.441	428.97
985.73	377.9
986.02	411.09
986.31	390.67
986.6	405.99
986.889	375.35
987.179	360.03
987.469	413.65
987.758	383.01
988.048	370.24
988.337	405.99
988.626	428.97
988.916	362.58
989.205	403.43
989.494	377.9
989.783	405.99
990.073	349.81
990.362	403.43
990.651	418.75
990.94	421.31
991.229	365.13
991.518	388.11
991.806	372.79
992.095	400.88
992.384	398.33
992.673	385.56
992.961	390.67
993.25	449.39
993.539	383.01
993.827	354.92
994.116	446.84
994.404	383.01
994.692	416.2
994.981	418.75
995.269	472.37
995.557	457.05
995.846	393.22
996.134	436.63
996.422	390.67
996.71	347.26
996.998	339.6
997.286	372.79
997.574	426.41
997.862	342.15
998.15	400.88
998.437	377.9
998.725	454.5
999.013	365.13
999.3	321.73
999.588	372.79
999.876	457.05
1000.163	367.69
1000.45	370.24
1000.738	331.94
1001.025	352.37
1001.313	329.39
1001.6	360.03
1001.887	393.22
1002.174	347.26
1002.461	377.9
1002.748	347.26
1003.036	418.75
1003.322	408.54
1003.609	370.24
1003.896	380.45
1004.183	431.52
1004.47	390.67
1004.757	390.67
1005.043	362.58
1005.33	377.9
1005.617	337.05
1005.903	342.15
1006.19	352.37
1006.476	418.75
1006.763	380.45
1007.049	395.77
1007.335	398.33
1007.622	434.07
1007.908	411.09
1008.194	372.79
1008.48	334.49
1008.766	395.77
1009.053	439.18
1009.339	403.43
1009.625	362.58
1009.91	334.49
1010.196	344.71
1010.482	385.56
1010.768	372.79
1011.054	423.86
1011.339	360.03
1011.625	395.77
1011.911	395.77
1012.196	280.87
1012.482	337.05
1012.767	383.01
1013.052	390.67
1013.338	416.2
1013.623	362.58
1013.908	380.45
1014.194	398.33
1014.479	357.47
1014.764	395.77
1015.049	316.62
1015.334	388.11
1015.619	375.35
1015.904	395.77
1016.189	349.81
1016.474	385.56
1016.758	324.28
1017.043	344.71
1017.328	477.48
1017.613	398.33
1017.897	365.13
1018.182	365.13
1018.466	421.31
1018.751	431.52
1019.035	385.56
1019.32	380.45
1019.604	390.67
1019.888	444.29
1020.172	444.29
1020.457	444.29
