Data from 2025-12-03_xpw_interference_micrometer_631_FLMS141361__37__587.txt Node

Date: Wed Dec 03 15:54:08 MST 2025
User: james
Spectrometer: FLMS14136
Trigger mode: 0
Integration Time (sec): 1.000000E-1
Scans to average: 1
Electric dark correction enabled: true
Nonlinearity correction enabled: false
Boxcar width: 0
XAxis mode: Wavelengths
Number of Pixels in Spectrum: 2048
>>>>>Begin Spectral Data<<<<<
339.315	-7.66
339.697	-7.66
340.079	-7.66
340.461	-94.47
340.843	-122.56
341.225	-112.35
341.607	-104.69
341.989	-84.26
342.371	-140.44
342.752	-89.37
343.134	-94.47
343.516	-38.3
343.897	48.51
344.279	-25.53
344.661	56.17
345.042	48.51
345.423	81.71
345.805	58.73
346.186	86.81
346.567	142.99
346.949	165.97
347.33	130.22
347.711	165.97
348.092	209.38
348.473	191.5
348.854	224.7
349.235	257.89
349.616	270.66
349.997	280.87
350.378	339.6
350.758	365.13
351.139	347.26
351.52	342.15
351.9	342.15
352.281	367.69
352.661	395.77
353.042	370.24
353.422	393.22
353.803	428.97
354.183	375.35
354.563	405.99
354.943	352.37
355.324	408.54
355.704	405.99
356.084	344.71
356.464	400.88
356.844	383.01
357.224	426.41
357.603	451.95
357.983	395.77
358.363	418.75
358.743	403.43
359.122	405.99
359.502	357.47
359.882	400.88
360.261	405.99
360.641	413.65
361.02	375.35
361.399	390.67
361.779	408.54
362.158	329.39
362.537	367.69
362.916	405.99
363.296	347.26
363.675	390.67
364.054	444.29
364.433	334.49
364.812	426.41
365.19	354.92
365.569	413.65
365.948	342.15
366.327	354.92
366.705	329.39
367.084	288.53
367.463	362.58
367.841	342.15
368.22	370.24
368.598	393.22
368.977	377.9
369.355	357.47
369.733	367.69
370.111	306.41
370.49	367.69
370.868	334.49
371.246	329.39
371.624	354.92
372.002	354.92
372.38	385.56
372.758	411.09
373.136	367.69
373.513	416.2
373.891	303.85
374.269	314.07
374.646	331.94
375.024	349.81
375.402	370.24
375.779	395.77
376.157	370.24
376.534	352.37
376.911	372.79
377.289	367.69
377.666	426.41
378.043	388.11
378.42	331.94
378.797	342.15
379.175	349.81
379.552	416.2
379.929	370.24
380.305	352.37
380.682	398.33
381.059	418.75
381.436	441.73
381.813	352.37
382.189	388.11
382.566	421.31
382.943	344.71
383.319	357.47
383.696	337.05
384.072	385.56
384.448	393.22
384.825	339.6
385.201	365.13
385.577	303.85
385.953	375.35
386.329	398.33
386.706	357.47
387.082	354.92
387.458	395.77
387.834	365.13
388.209	400.88
388.585	380.45
388.961	380.45
389.337	375.35
389.713	349.81
390.088	357.47
390.464	383.01
390.839	434.07
391.215	395.77
391.59	383.01
391.966	334.49
392.341	423.86
392.716	377.9
393.092	426.41
393.467	352.37
393.842	385.56
394.217	326.83
394.592	380.45
394.967	380.45
395.342	403.43
395.717	360.03
396.092	370.24
396.467	337.05
396.841	428.97
397.216	337.05
397.591	357.47
397.965	372.79
398.34	365.13
398.714	395.77
399.089	390.67
399.463	370.24
399.838	464.71
400.212	354.92
400.586	334.49
400.961	388.11
401.335	362.58
401.709	403.43
402.083	308.96
402.457	370.24
402.831	390.67
403.205	357.47
403.579	377.9
403.953	393.22
404.326	444.29
404.7	428.97
405.074	426.41
405.447	416.2
405.821	393.22
406.195	428.97
406.568	400.88
406.942	482.59
407.315	421.31
407.688	408.54
408.062	405.99
408.435	418.75
408.808	418.75
409.181	367.69
409.554	385.56
409.927	385.56
410.3	457.05
410.673	411.09
411.046	472.37
411.419	405.99
411.792	395.77
412.165	349.81
412.537	326.83
412.91	393.22
413.283	405.99
413.655	365.13
414.028	347.26
414.4	411.09
414.773	449.39
415.145	360.03
415.517	457.05
415.889	426.41
416.262	439.18
416.634	395.77
417.006	383.01
417.378	451.95
417.75	400.88
418.122	482.59
418.494	421.31
418.866	408.54
419.238	449.39
419.609	434.07
419.981	428.97
420.353	403.43
420.725	400.88
421.096	344.71
421.468	357.47
421.839	462.16
422.211	449.39
422.582	357.47
422.953	339.6
423.325	385.56
423.696	347.26
424.067	421.31
424.438	446.84
424.809	352.37
425.18	365.13
425.551	446.84
425.922	377.9
426.293	400.88
426.664	403.43
427.035	457.05
427.406	365.13
427.776	400.88
428.147	474.93
428.518	418.75
428.888	421.31
429.259	421.31
429.629	439.18
429.999	413.65
430.37	451.95
430.74	342.15
431.11	331.94
431.481	380.45
431.851	454.5
432.221	413.65
432.591	413.65
432.961	439.18
433.331	428.97
433.701	474.93
434.071	459.61
434.441	357.47
434.81	426.41
435.18	421.31
435.55	449.39
435.919	411.09
436.289	395.77
436.658	431.52
437.028	403.43
437.397	482.59
437.767	403.43
438.136	380.45
438.505	413.65
438.875	388.11
439.244	403.43
439.613	383.01
439.982	372.79
440.351	413.65
440.72	411.09
441.089	418.75
441.458	469.82
441.827	383.01
442.196	423.86
442.564	474.93
442.933	426.41
443.302	446.84
443.67	464.71
444.039	377.9
444.407	377.9
444.776	416.2
445.144	380.45
445.513	398.33
445.881	431.52
446.249	441.73
446.617	411.09
446.986	418.75
447.354	421.31
447.722	413.65
448.09	408.54
448.458	423.86
448.826	451.95
449.194	408.54
449.561	428.97
449.929	400.88
450.297	398.33
450.665	388.11
451.032	436.63
451.4	426.41
451.767	454.5
452.135	421.31
452.502	431.52
452.87	457.05
453.237	467.27
453.604	474.93
453.971	469.82
454.339	383.01
454.706	416.2
455.073	344.71
455.44	393.22
455.807	451.95
456.174	413.65
456.541	431.52
456.908	411.09
457.274	403.43
457.641	449.39
458.008	454.5
458.374	423.86
458.741	454.5
459.108	500.46
459.474	411.09
459.841	428.97
460.207	449.39
460.573	388.11
460.94	426.41
461.306	480.04
461.672	441.73
462.038	421.31
462.404	365.13
462.771	426.41
463.137	360.03
463.503	434.07
463.868	347.26
464.234	426.41
464.6	451.95
464.966	444.29
465.332	434.07
465.697	467.27
466.063	482.59
466.429	383.01
466.794	459.61
467.16	428.97
467.525	441.73
467.89	439.18
468.256	464.71
468.621	457.05
468.986	503.02
469.351	464.71
469.717	436.63
470.082	408.54
470.447	441.73
470.812	377.9
471.177	454.5
471.542	365.13
471.906	441.73
472.271	480.04
472.636	390.67
473.001	418.75
473.365	405.99
473.73	367.69
474.094	380.45
474.459	413.65
474.823	380.45
475.188	365.13
475.552	339.6
475.917	393.22
476.281	449.39
476.645	408.54
477.009	426.41
477.373	444.29
477.737	444.29
478.101	354.92
478.465	482.59
478.829	451.95
479.193	428.97
479.557	418.75
479.921	385.56
480.284	459.61
480.648	439.18
481.012	426.41
481.375	421.31
481.739	354.92
482.102	518.34
482.466	426.41
482.829	467.27
483.193	439.18
483.556	319.17
483.919	360.03
484.282	441.73
484.645	446.84
485.009	395.77
485.372	377.9
485.735	449.39
486.098	444.29
486.46	390.67
486.823	380.45
487.186	400.88
487.549	426.41
487.912	428.97
488.274	413.65
488.637	505.57
488.999	434.07
489.362	395.77
489.724	482.59
490.087	383.01
490.449	388.11
490.811	434.07
491.174	370.24
491.536	459.61
491.898	469.82
492.26	405.99
492.622	418.75
492.984	377.9
493.346	416.2
493.708	411.09
494.07	436.63
494.432	467.27
494.794	416.2
495.155	400.88
495.517	449.39
495.879	405.99
496.24	431.52
496.602	375.35
496.963	418.75
497.325	416.2
497.686	390.67
498.048	393.22
498.409	482.59
498.77	390.67
499.131	482.59
499.492	423.86
499.854	418.75
500.215	398.33
500.576	383.01
500.937	434.07
501.298	383.01
501.658	416.2
502.019	451.95
502.38	464.71
502.741	408.54
503.101	459.61
503.462	441.73
503.823	485.14
504.183	434.07
504.543	400.88
504.904	451.95
505.264	449.39
505.625	418.75
505.985	398.33
506.345	449.39
506.705	454.5
507.065	370.24
507.426	421.31
507.786	405.99
508.146	487.7
508.505	454.5
508.865	418.75
509.225	449.39
509.585	548.98
509.945	441.73
510.304	383.01
510.664	411.09
511.024	416.2
511.383	421.31
511.743	357.47
512.102	388.11
512.462	393.22
512.821	390.67
513.18	408.54
513.539	416.2
513.899	446.84
514.258	464.71
514.617	469.82
514.976	497.91
515.335	497.91
515.694	375.35
516.053	388.11
516.412	400.88
516.771	441.73
517.129	421.31
517.488	457.05
517.847	497.91
518.205	449.39
518.564	388.11
518.922	357.47
519.281	370.24
519.639	405.99
519.998	431.52
520.356	390.67
520.714	457.05
521.073	423.86
521.431	426.41
521.789	428.97
522.147	459.61
522.505	451.95
522.863	423.86
523.221	436.63
523.579	411.09
523.937	441.73
524.295	388.11
524.652	428.97
525.01	354.92
525.368	459.61
525.725	459.61
526.083	405.99
526.44	390.67
526.798	431.52
527.155	467.27
527.513	411.09
527.87	365.13
528.227	444.29
528.584	434.07
528.942	472.37
529.299	500.46
529.656	441.73
530.013	439.18
530.37	367.69
530.727	439.18
531.083	462.16
531.44	444.29
531.797	441.73
532.154	472.37
532.511	416.2
532.867	388.11
533.224	423.86
533.58	464.71
533.937	434.07
534.293	395.77
534.65	375.35
535.006	413.65
535.362	403.43
535.718	428.97
536.075	405.99
536.431	400.88
536.787	388.11
537.143	428.97
537.499	431.52
537.855	375.35
538.211	434.07
538.567	426.41
538.923	405.99
539.278	337.05
539.634	405.99
539.99	372.79
540.345	385.56
540.701	395.77
541.056	400.88
541.412	426.41
541.767	418.75
542.123	426.41
542.478	416.2
542.833	464.71
543.188	446.84
543.544	472.37
543.899	446.84
544.254	390.67
544.609	474.93
544.964	400.88
545.319	434.07
545.674	411.09
546.029	418.75
546.383	469.82
546.738	413.65
547.093	469.82
547.447	383.01
547.802	457.05
548.157	370.24
548.511	413.65
548.866	298.75
549.22	393.22
549.574	380.45
549.929	367.69
550.283	454.5
550.637	408.54
550.991	393.22
551.345	347.26
551.699	395.77
552.053	469.82
552.407	462.16
552.761	388.11
553.115	400.88
553.469	482.59
553.823	457.05
554.176	418.75
554.53	411.09
554.884	413.65
555.237	623.02
555.591	416.2
555.944	446.84
556.298	485.14
556.651	439.18
557.005	380.45
557.358	462.16
557.711	457.05
558.064	434.07
558.417	446.84
558.771	561.74
559.124	428.97
559.477	411.09
559.83	398.33
560.182	395.77
560.535	482.59
560.888	405.99
561.241	434.07
561.594	360.03
561.946	405.99
562.299	434.07
562.651	354.92
563.004	393.22
563.356	428.97
563.709	416.2
564.061	408.54
564.413	451.95
564.766	408.54
565.118	441.73
565.47	441.73
565.822	472.37
566.174	418.75
566.526	380.45
566.878	347.26
567.23	408.54
567.582	393.22
567.934	421.31
568.286	434.07
568.638	441.73
568.989	457.05
569.341	372.79
569.693	342.15
570.044	342.15
570.396	490.25
570.747	405.99
571.098	469.82
571.45	464.71
571.801	408.54
572.152	457.05
572.504	421.31
572.855	344.71
573.206	403.43
573.557	446.84
573.908	405.99
574.259	485.14
574.61	416.2
574.961	403.43
575.311	441.73
575.662	375.35
576.013	428.97
576.364	421.31
576.714	377.9
577.065	474.93
577.415	441.73
577.766	426.41
578.116	459.61
578.467	405.99
578.817	398.33
579.167	377.9
579.518	329.39
579.868	462.16
580.218	400.88
580.568	441.73
580.918	416.2
581.268	439.18
581.618	434.07
581.968	423.86
582.318	454.5
582.668	405.99
583.017	462.16
583.367	505.57
583.717	418.75
584.066	403.43
584.416	370.24
584.765	439.18
585.115	383.01
585.464	421.31
585.814	357.47
586.163	357.47
586.512	411.09
586.862	454.5
587.211	357.47
587.56	477.48
587.909	487.7
588.258	423.86
588.607	377.9
588.956	446.84
589.305	400.88
589.654	375.35
590.002	347.26
590.351	436.63
590.7	390.67
591.048	423.86
591.397	441.73
591.746	411.09
592.094	339.6
592.443	383.01
592.791	444.29
593.139	383.01
593.488	393.22
593.836	337.05
594.184	423.86
594.532	398.33
594.88	413.65
595.228	439.18
595.576	395.77
595.924	418.75
596.272	441.73
596.62	434.07
596.968	472.37
597.316	390.67
597.664	390.67
598.011	388.11
598.359	367.69
598.706	469.82
599.054	357.47
599.402	383.01
599.749	380.45
600.096	400.88
600.444	390.67
600.791	380.45
601.138	403.43
601.485	428.97
601.833	434.07
602.18	449.39
602.527	449.39
602.874	490.25
603.221	411.09
603.568	398.33
603.914	405.99
604.261	395.77
604.608	385.56
604.955	413.65
605.301	411.09
605.648	395.77
605.995	457.05
606.341	467.27
606.688	413.65
607.034	347.26
607.38	436.63
607.727	457.05
608.073	360.03
608.419	464.71
608.765	370.24
609.112	426.41
609.458	431.52
609.804	449.39
610.15	423.86
610.496	490.25
610.842	405.99
611.187	331.94
611.533	390.67
611.879	398.33
612.225	329.39
612.57	375.35
612.916	418.75
613.261	362.58
613.607	416.2
613.952	418.75
614.298	416.2
614.643	400.88
614.989	393.22
615.334	446.84
615.679	436.63
616.024	426.41
616.369	408.54
616.714	469.82
617.059	400.88
617.404	508.12
617.749	375.35
618.094	324.28
618.439	400.88
618.784	464.71
619.129	416.2
619.473	462.16
619.818	390.67
620.163	367.69
620.507	413.65
620.852	462.16
621.196	331.94
621.54	423.86
621.885	467.27
622.229	408.54
622.573	439.18
622.918	413.65
623.262	428.97
623.606	477.48
623.95	492.8
624.294	472.37
624.638	439.18
624.982	360.03
625.326	380.45
625.67	367.69
626.013	439.18
626.357	436.63
626.701	393.22
627.044	434.07
627.388	360.03
627.731	441.73
628.075	451.95
628.418	444.29
628.762	439.18
629.105	413.65
629.448	418.75
629.792	408.54
630.135	408.54
630.478	436.63
630.821	403.43
631.164	370.24
631.507	390.67
631.85	385.56
632.193	400.88
632.536	372.79
632.879	342.15
633.221	403.43
633.564	385.56
633.907	388.11
634.249	428.97
634.592	388.11
634.935	459.61
635.277	411.09
635.619	431.52
635.962	431.52
636.304	446.84
636.646	431.52
636.989	388.11
637.331	454.5
637.673	449.39
638.015	421.31
638.357	398.33
638.699	426.41
639.041	500.46
639.383	457.05
639.725	362.58
640.067	441.73
640.408	375.35
640.75	441.73
641.092	426.41
641.433	418.75
641.775	398.33
642.116	482.59
642.458	393.22
642.799	446.84
643.141	375.35
643.482	375.35
643.823	428.97
644.164	403.43
644.506	467.27
644.847	416.2
645.188	426.41
645.529	426.41
645.87	367.69
646.211	349.81
646.552	416.2
646.893	441.73
647.233	385.56
647.574	416.2
647.915	434.07
648.255	390.67
648.596	428.97
648.937	451.95
649.277	334.49
649.618	408.54
649.958	428.97
650.298	339.6
650.639	408.54
650.979	457.05
651.319	431.52
651.659	416.2
651.999	342.15
652.339	421.31
652.679	416.2
653.019	331.94
653.359	421.31
653.699	388.11
654.039	495.36
654.379	405.99
654.719	480.04
655.058	454.5
655.398	451.95
655.737	459.61
656.077	421.31
656.416	400.88
656.756	428.97
657.095	383.01
657.435	467.27
657.774	398.33
658.113	403.43
658.452	349.81
658.792	383.01
659.131	380.45
659.47	385.56
659.809	393.22
660.148	372.79
660.487	383.01
660.826	413.65
661.164	360.03
661.503	413.65
661.842	388.11
662.181	372.79
662.519	403.43
662.858	428.97
663.196	434.07
663.535	380.45
663.873	464.71
664.212	505.57
664.55	431.52
664.888	449.39
665.226	403.43
665.565	393.22
665.903	531.1
666.241	439.18
666.579	400.88
666.917	367.69
667.255	403.43
667.593	462.16
667.931	416.2
668.268	444.29
668.606	380.45
668.944	423.86
669.282	418.75
669.619	390.67
669.957	393.22
670.294	372.79
670.632	454.5
670.969	411.09
671.307	408.54
671.644	423.86
671.981	403.43
672.318	408.54
672.656	413.65
672.993	400.88
673.33	423.86
673.667	388.11
674.004	421.31
674.341	434.07
674.678	388.11
675.015	393.22
675.351	441.73
675.688	362.58
676.025	434.07
676.362	426.41
676.698	398.33
677.035	403.43
677.371	495.36
677.708	398.33
678.044	421.31
678.38	400.88
678.717	418.75
679.053	413.65
679.389	390.67
679.725	342.15
680.062	464.71
680.398	380.45
680.734	408.54
681.07	428.97
681.406	423.86
681.742	434.07
682.077	434.07
682.413	360.03
682.749	451.95
683.085	347.26
683.42	342.15
683.756	408.54
684.091	449.39
684.427	423.86
684.762	385.56
685.098	434.07
685.433	390.67
685.768	431.52
686.104	393.22
686.439	472.37
686.774	434.07
687.109	490.25
687.444	434.07
687.779	403.43
688.114	428.97
688.449	388.11
688.784	503.02
689.119	480.04
689.454	388.11
689.789	390.67
690.123	441.73
690.458	418.75
690.792	451.95
691.127	395.77
691.461	434.07
691.796	301.3
692.13	339.6
692.465	428.97
692.799	390.67
693.133	388.11
693.467	403.43
693.802	362.58
694.136	400.88
694.47	408.54
694.804	400.88
695.138	413.65
695.472	423.86
695.806	398.33
696.139	421.31
696.473	383.01
696.807	413.65
697.141	362.58
697.474	426.41
697.808	485.14
698.141	434.07
698.475	357.47
698.808	367.69
699.142	400.88
699.475	408.54
699.808	449.39
700.142	411.09
700.475	375.35
700.808	347.26
701.141	400.88
701.474	416.2
701.807	418.75
702.14	421.31
702.473	513.23
702.806	428.97
703.139	395.77
703.472	421.31
703.804	362.58
704.137	398.33
704.47	431.52
704.802	457.05
705.135	434.07
705.467	423.86
705.8	370.24
706.132	398.33
706.464	370.24
706.797	362.58
707.129	372.79
707.461	393.22
707.793	431.52
708.125	474.93
708.457	403.43
708.789	362.58
709.121	372.79
709.453	393.22
709.785	439.18
710.117	403.43
710.449	377.9
710.781	331.94
711.112	398.33
711.444	390.67
711.775	383.01
712.107	416.2
712.438	500.46
712.77	441.73
713.101	418.75
713.433	408.54
713.764	380.45
714.095	441.73
714.426	459.61
714.757	472.37
715.089	431.52
715.42	413.65
715.751	464.71
716.082	349.81
716.412	423.86
716.743	403.43
717.074	469.82
717.405	454.5
717.736	377.9
718.066	408.54
718.397	398.33
718.727	375.35
719.058	342.15
719.388	421.31
719.719	426.41
720.049	431.52
720.38	431.52
720.71	311.51
721.04	434.07
721.37	334.49
721.7	393.22
722.031	444.29
722.361	454.5
722.691	367.69
723.021	431.52
723.35	352.37
723.68	352.37
724.01	362.58
724.34	436.63
724.67	393.22
724.999	388.11
725.329	383.01
725.658	408.54
725.988	441.73
726.317	408.54
726.647	365.13
726.976	413.65
727.306	339.6
727.635	383.01
727.964	344.71
728.293	411.09
728.622	418.75
728.952	372.79
729.281	423.86
729.61	457.05
729.939	367.69
730.267	451.95
730.596	403.43
730.925	449.39
731.254	462.16
731.583	395.77
731.911	352.37
732.24	388.11
732.568	497.91
732.897	418.75
733.225	405.99
733.554	388.11
733.882	370.24
734.21	370.24
734.539	365.13
734.867	416.2
735.195	365.13
735.523	362.58
735.851	428.97
736.179	324.28
736.507	380.45
736.835	390.67
737.163	377.9
737.491	431.52
737.819	457.05
738.147	413.65
738.474	423.86
738.802	416.2
739.13	357.47
739.457	416.2
739.785	423.86
740.112	337.05
740.44	421.31
740.767	380.45
741.094	385.56
741.422	408.54
741.749	390.67
742.076	398.33
742.403	347.26
742.73	416.2
743.057	370.24
743.384	403.43
743.711	431.52
744.038	375.35
744.365	431.52
744.692	362.58
745.018	439.18
745.345	418.75
745.672	390.67
745.998	413.65
746.325	347.26
746.651	426.41
746.978	375.35
747.304	352.37
747.631	408.54
747.957	390.67
748.283	431.52
748.61	426.41
748.936	393.22
749.262	482.59
749.588	403.43
749.914	377.9
750.24	426.41
750.566	418.75
750.892	398.33
751.218	408.54
751.543	390.67
751.869	441.73
752.195	472.37
752.521	416.2
752.846	451.95
753.172	439.18
753.497	423.86
753.823	428.97
754.148	457.05
754.473	388.11
754.799	380.45
755.124	367.69
755.449	380.45
755.774	441.73
756.1	411.09
756.425	403.43
756.75	436.63
757.075	388.11
757.4	531.1
757.724	449.39
758.049	423.86
758.374	390.67
758.699	314.07
759.024	395.77
759.348	375.35
759.673	408.54
759.997	393.22
760.322	426.41
760.646	446.84
760.971	405.99
761.295	451.95
761.619	398.33
761.944	426.41
762.268	533.66
762.592	508.12
762.916	495.36
763.24	538.76
763.564	594.94
763.888	633.24
764.212	773.67
764.536	827.29
764.86	870.7
765.184	837.51
765.508	824.74
765.831	911.56
766.155	1141.36
766.478	847.72
766.802	829.85
767.126	773.67
767.449	801.76
767.772	870.7
768.096	743.03
768.419	633.24
768.742	605.15
769.066	617.92
769.389	577.06
769.712	594.94
770.035	640.9
770.358	817.08
770.681	868.15
771.004	1103.06
771.327	1149.02
771.65	1417.12
771.972	1672.46
772.295	2055.47
772.618	2331.23
772.941	2558.48
773.263	2933.83
773.586	3342.37
773.908	3477.7
774.231	3753.47
774.553	3819.85
774.875	3916.88
775.198	4192.65
775.52	3799.43
775.842	3518.55
776.164	3153.42
776.487	3135.55
776.809	3018.09
777.131	2836.8
777.453	2655.51
777.775	2479.33
778.096	2321.02
778.418	1940.57
778.74	1503.94
779.062	1360.95
779.384	1105.61
779.705	1011.14
780.027	1039.22
780.348	1006.03
780.67	1067.31
780.991	1292.01
781.313	1606.07
781.634	2091.22
781.955	2323.57
782.277	3038.52
782.598	3406.21
782.919	3835.17
783.24	4307.55
783.561	4754.39
783.882	5019.94
784.203	5448.91
784.524	5561.26
784.845	5686.37
785.166	6117.89
785.487	6786.88
785.807	6945.19
786.128	6899.23
786.449	6554.52
786.769	6319.61
787.09	6414.09
787.41	6518.77
787.731	6516.22
788.051	6411.53
788.372	6477.92
788.692	6043.85
789.012	5479.55
789.332	4710.98
789.653	4246.27
789.973	3927.1
790.293	3439.4
790.613	2517.63
790.933	1996.74
791.253	1652.04
791.573	1404.36
791.893	1141.36
792.212	980.5
792.532	842.61
792.852	993.26
793.171	1133.7
793.491	1509.05
793.811	2035.04
794.13	2420.6
794.45	2778.08
794.769	3424.08
795.088	3914.33
795.408	4621.61
795.727	5773.19
796.046	6922.21
796.365	8073.78
796.684	8329.12
797.004	8339.33
797.323	9110.45
797.642	9945.41
797.96	9626.24
798.279	9401.54
798.598	9238.12
798.917	9158.97
799.236	8847.45
799.554	8564.03
799.873	7997.18
800.192	7552.89
800.51	7157.12
800.829	6776.67
801.147	6082.15
801.466	5170.59
801.784	5019.94
802.102	4246.27
802.421	3758.57
802.739	3457.27
803.057	2849.57
803.375	2262.29
803.693	1912.48
804.011	1682.68
804.329	1389.04
804.647	1172
804.965	1036.67
805.283	847.72
805.601	926.88
805.918	763.46
806.236	778.78
806.554	791.55
806.871	840.06
807.189	1034.12
807.507	1376.27
807.824	1572.88
808.141	1588.2
808.459	1756.72
808.776	1996.74
809.093	2162.71
809.411	2407.84
809.728	2517.63
810.045	2760.2
810.362	3196.83
810.679	3434.29
810.996	3618.14
811.313	3840.28
811.63	4034.34
811.947	3939.86
812.264	4110.94
812.58	4029.23
812.897	3827.51
813.214	3531.32
813.53	3470.04
813.847	3973.06
814.163	3814.75
814.48	3327.05
814.796	3081.93
815.113	3087.03
815.429	2770.42
815.745	2522.74
816.061	2418.05
816.378	2188.24
816.694	1792.47
817.01	1532.03
817.326	1503.94
817.642	1299.67
817.958	1067.31
818.274	975.39
818.59	834.95
818.905	735.37
819.221	704.73
819.537	674.09
819.852	617.92
820.168	528.55
820.484	497.91
820.799	523.44
821.115	600.04
821.43	607.7
821.745	574.51
822.061	625.58
822.376	571.96
822.691	707.29
823.006	745.59
823.322	760.91
823.637	827.29
823.952	840.06
824.267	832.4
824.582	983.05
824.897	1103.06
825.211	1095.4
825.526	1194.98
825.841	1154.13
826.156	1164.34
826.47	1207.75
826.785	1327.76
827.1	1289.46
827.414	1207.75
827.729	1166.89
828.043	1240.94
828.357	1263.92
828.672	1251.16
828.986	1266.48
829.3	1266.48
829.614	1271.58
829.929	1243.5
830.243	1154.13
830.557	1039.22
830.871	937.09
831.185	852.83
831.499	926.88
831.812	906.45
832.126	870.7
832.44	773.67
832.754	852.83
833.067	814.53
833.381	600.04
833.695	709.84
834.008	651.11
834.322	607.7
834.635	610.26
834.948	554.08
835.262	582.17
835.575	543.87
835.888	490.25
836.201	482.59
836.515	454.5
836.828	380.45
837.141	464.71
837.454	426.41
837.767	434.07
838.08	408.54
838.392	393.22
838.705	393.22
839.018	360.03
839.331	464.71
839.643	528.55
839.956	469.82
840.269	413.65
840.581	485.14
840.894	413.65
841.206	457.05
841.519	589.83
841.831	439.18
842.143	398.33
842.455	439.18
842.768	497.91
843.08	497.91
843.392	503.02
843.704	518.34
844.016	523.44
844.328	518.34
844.64	492.8
844.952	480.04
845.263	477.48
845.575	536.21
845.887	487.7
846.199	474.93
846.51	569.4
846.822	467.27
847.133	485.14
847.445	487.7
847.756	459.61
848.068	467.27
848.379	487.7
848.69	469.82
849.002	421.31
849.313	421.31
849.624	513.23
849.935	431.52
850.246	426.41
850.557	362.58
850.868	428.97
851.179	459.61
851.49	510.68
851.801	405.99
852.112	393.22
852.422	400.88
852.733	411.09
853.044	446.84
853.354	436.63
853.665	454.5
853.975	464.71
854.286	393.22
854.596	339.6
854.906	395.77
855.217	393.22
855.527	454.5
855.837	459.61
856.147	418.75
856.458	395.77
856.768	393.22
857.078	388.11
857.388	441.73
857.698	426.41
858.007	431.52
858.317	388.11
858.627	360.03
858.937	398.33
859.246	416.2
859.556	408.54
859.866	446.84
860.175	439.18
860.485	462.16
860.794	436.63
861.104	395.77
861.413	370.24
861.722	395.77
862.032	321.73
862.341	421.31
862.65	431.52
862.959	367.69
863.268	375.35
863.577	388.11
863.886	413.65
864.195	418.75
864.504	365.13
864.813	426.41
865.122	426.41
865.43	377.9
865.739	375.35
866.048	329.39
866.356	405.99
866.665	451.95
866.973	390.67
867.282	344.71
867.59	413.65
867.899	380.45
868.207	423.86
868.515	393.22
868.823	344.71
869.132	444.29
869.44	398.33
869.748	418.75
870.056	347.26
870.364	457.05
870.672	398.33
870.98	370.24
871.288	441.73
871.595	426.41
871.903	411.09
872.211	411.09
872.518	403.43
872.826	428.97
873.134	390.67
873.441	459.61
873.749	423.86
874.056	434.07
874.363	451.95
874.671	444.29
874.978	385.56
875.285	444.29
875.592	367.69
875.9	372.79
876.207	337.05
876.514	411.09
876.821	347.26
877.128	380.45
877.435	393.22
877.741	365.13
878.048	377.9
878.355	400.88
878.662	393.22
878.968	423.86
879.275	395.77
879.582	395.77
879.888	393.22
880.195	428.97
880.501	388.11
880.807	421.31
881.114	365.13
881.42	331.94
881.726	395.77
882.032	421.31
882.339	428.97
882.645	467.27
882.951	469.82
883.257	405.99
883.563	439.18
883.869	416.2
884.174	380.45
884.48	411.09
884.786	354.92
885.092	451.95
885.397	416.2
885.703	428.97
886.009	398.33
886.314	446.84
886.62	413.65
886.925	431.52
887.231	411.09
887.536	400.88
887.841	360.03
888.146	469.82
888.452	418.75
888.757	439.18
889.062	367.69
889.367	413.65
889.672	457.05
889.977	421.31
890.282	421.31
890.587	421.31
890.892	388.11
891.196	426.41
891.501	383.01
891.806	413.65
892.11	377.9
892.415	411.09
892.72	375.35
893.024	393.22
893.328	459.61
893.633	416.2
893.937	490.25
894.242	390.67
894.546	423.86
894.85	426.41
895.154	426.41
895.458	457.05
895.762	423.86
896.066	439.18
896.37	411.09
896.674	436.63
896.978	390.67
897.282	377.9
897.586	303.85
897.89	439.18
898.193	421.31
898.497	377.9
898.801	462.16
899.104	441.73
899.408	446.84
899.711	469.82
900.014	405.99
900.318	403.43
900.621	357.47
900.924	436.63
901.228	405.99
901.531	431.52
901.834	459.61
902.137	395.77
902.44	375.35
902.743	462.16
903.046	388.11
903.349	426.41
903.652	416.2
903.955	314.07
904.257	393.22
904.56	365.13
904.863	395.77
905.165	492.8
905.468	426.41
905.77	413.65
906.073	370.24
906.375	395.77
906.678	347.26
906.98	405.99
907.282	403.43
907.584	372.79
907.887	365.13
908.189	426.41
908.491	390.67
908.793	362.58
909.095	428.97
909.397	416.2
909.699	482.59
910.001	413.65
910.302	357.47
910.604	411.09
910.906	385.56
911.208	383.01
911.509	403.43
911.811	431.52
912.112	383.01
912.414	354.92
912.715	362.58
913.017	454.5
913.318	357.47
913.619	367.69
913.92	405.99
914.222	377.9
914.523	342.15
914.824	375.35
915.125	390.67
915.426	416.2
915.727	400.88
916.028	500.46
916.329	451.95
916.63	377.9
916.93	441.73
917.231	372.79
917.532	303.85
917.832	388.11
918.133	431.52
918.434	377.9
918.734	413.65
919.034	416.2
919.335	370.24
919.635	383.01
919.935	411.09
920.236	428.97
920.536	405.99
920.836	393.22
921.136	377.9
921.436	546.42
921.736	395.77
922.036	395.77
922.336	408.54
922.636	385.56
922.936	428.97
923.236	354.92
923.535	416.2
923.835	370.24
924.135	472.37
924.434	365.13
924.734	390.67
925.033	411.09
925.333	367.69
925.632	449.39
925.932	446.84
926.231	393.22
926.53	439.18
926.83	467.27
927.129	405.99
927.428	380.45
927.727	352.37
928.026	416.2
928.325	416.2
928.624	441.73
928.923	428.97
929.222	403.43
929.52	380.45
929.819	400.88
930.118	383.01
930.417	416.2
930.715	418.75
931.014	444.29
931.312	413.65
931.611	434.07
931.909	400.88
932.207	375.35
932.506	398.33
932.804	418.75
933.102	434.07
933.401	423.86
933.699	385.56
933.997	426.41
934.295	416.2
934.593	383.01
934.891	377.9
935.189	421.31
935.487	380.45
935.784	416.2
936.082	393.22
936.38	436.63
936.677	342.15
936.975	347.26
937.273	324.28
937.57	413.65
937.868	436.63
938.165	377.9
938.463	421.31
938.76	375.35
939.057	408.54
939.354	395.77
939.652	446.84
939.949	388.11
940.246	360.03
940.543	365.13
940.84	385.56
941.137	405.99
941.434	451.95
941.731	388.11
942.028	431.52
942.324	370.24
942.621	451.95
942.918	480.04
943.214	436.63
943.511	377.9
943.807	342.15
944.104	444.29
944.4	421.31
944.697	431.52
944.993	390.67
945.29	372.79
945.586	372.79
945.882	439.18
946.178	423.86
946.474	413.65
946.77	377.9
947.066	383.01
947.362	411.09
947.658	480.04
947.954	418.75
948.25	421.31
948.546	367.69
948.842	331.94
949.137	344.71
949.433	365.13
949.729	439.18
950.024	385.56
950.32	428.97
950.615	395.77
950.91	354.92
951.206	390.67
951.501	339.6
951.796	370.24
952.092	380.45
952.387	416.2
952.682	423.86
952.977	393.22
953.272	444.29
953.567	454.5
953.862	390.67
954.157	383.01
954.452	398.33
954.747	393.22
955.041	423.86
955.336	439.18
955.631	449.39
955.925	400.88
956.22	408.54
956.514	403.43
956.809	400.88
957.103	411.09
957.398	403.43
957.692	436.63
957.986	408.54
958.281	377.9
958.575	362.58
958.869	418.75
959.163	472.37
959.457	370.24
959.751	436.63
960.045	383.01
960.339	329.39
960.633	403.43
960.927	377.9
961.221	411.09
961.514	434.07
961.808	403.43
962.102	388.11
962.395	360.03
962.689	413.65
962.982	428.97
963.276	474.93
963.569	365.13
963.862	342.15
964.156	428.97
964.449	395.77
964.742	428.97
965.035	405.99
965.328	383.01
965.622	375.35
965.915	339.6
966.208	400.88
966.5	451.95
966.793	434.07
967.086	477.48
967.379	408.54
967.672	352.37
967.964	372.79
968.257	408.54
968.55	405.99
968.842	421.31
969.135	423.86
969.427	393.22
969.72	400.88
970.012	416.2
970.304	480.04
970.597	398.33
970.889	383.01
971.181	388.11
971.473	390.67
971.765	467.27
972.057	390.67
972.349	398.33
972.641	400.88
972.933	367.69
973.225	421.31
973.517	449.39
973.809	436.63
974.1	393.22
974.392	416.2
974.684	393.22
974.975	405.99
975.267	462.16
975.558	418.75
975.85	426.41
976.141	383.01
976.432	385.56
976.724	347.26
977.015	457.05
977.306	395.77
977.597	383.01
977.888	375.35
978.179	344.71
978.47	395.77
978.761	365.13
979.052	408.54
979.343	385.56
979.634	416.2
979.925	344.71
980.215	370.24
980.506	421.31
980.797	421.31
981.087	457.05
981.378	385.56
981.668	398.33
981.959	418.75
982.249	393.22
982.54	411.09
982.83	421.31
983.12	380.45
983.41	416.2
983.701	423.86
983.991	418.75
984.281	372.79
984.571	352.37
984.861	426.41
985.151	403.43
985.441	431.52
985.73	413.65
986.02	413.65
986.31	421.31
986.6	388.11
986.889	388.11
987.179	367.69
987.469	357.47
987.758	439.18
988.048	426.41
988.337	411.09
988.626	426.41
988.916	354.92
989.205	426.41
989.494	451.95
989.783	449.39
990.073	349.81
990.362	416.2
990.651	416.2
990.94	464.71
991.229	400.88
991.518	413.65
991.806	329.39
992.095	375.35
992.384	413.65
992.673	372.79
992.961	428.97
993.25	388.11
993.539	457.05
993.827	352.37
994.116	423.86
994.404	441.73
994.692	405.99
994.981	380.45
995.269	352.37
995.557	418.75
995.846	377.9
996.134	421.31
996.422	388.11
996.71	439.18
996.998	349.81
997.286	349.81
997.574	388.11
997.862	354.92
998.15	400.88
998.437	408.54
998.725	444.29
999.013	431.52
999.3	451.95
999.588	408.54
999.876	395.77
1000.163	377.9
1000.45	357.47
1000.738	357.47
1001.025	467.27
1001.313	421.31
1001.6	329.39
1001.887	421.31
1002.174	385.56
1002.461	390.67
1002.748	423.86
1003.036	383.01
1003.322	403.43
1003.609	446.84
1003.896	434.07
1004.183	408.54
1004.47	413.65
1004.757	444.29
1005.043	334.49
1005.33	403.43
1005.617	395.77
1005.903	367.69
1006.19	398.33
1006.476	436.63
1006.763	372.79
1007.049	411.09
1007.335	370.24
1007.622	446.84
1007.908	405.99
1008.194	418.75
1008.48	377.9
1008.766	383.01
1009.053	411.09
1009.339	436.63
1009.625	411.09
1009.91	426.41
1010.196	331.94
1010.482	347.26
1010.768	405.99
1011.054	413.65
1011.339	421.31
1011.625	362.58
1011.911	385.56
1012.196	411.09
1012.482	408.54
1012.767	444.29
1013.052	449.39
1013.338	385.56
1013.623	449.39
1013.908	354.92
1014.194	377.9
1014.479	354.92
1014.764	339.6
1015.049	375.35
1015.334	385.56
1015.619	360.03
1015.904	431.52
1016.189	377.9
1016.474	385.56
1016.758	375.35
1017.043	423.86
1017.328	383.01
1017.613	395.77
1017.897	416.2
1018.182	354.92
1018.466	331.94
1018.751	367.69
1019.035	416.2
1019.32	416.2
1019.604	431.52
1019.888	388.11
1020.172	388.11
1020.457	388.11
