Data from 2025-11-25_spectrum_w_ND_FLMS141361__0__15-21-12-248.txt Node

Date: Tue Nov 25 15:21:12 MST 2025
User: james
Spectrometer: FLMS14136
Trigger mode: 0
Integration Time (sec): 1.000000E-1
Scans to average: 1
Electric dark correction enabled: true
Nonlinearity correction enabled: false
Boxcar width: 0
XAxis mode: Wavelengths
Number of Pixels in Spectrum: 2048
>>>>>Begin Spectral Data<<<<<
339.315	-38.14
339.697	-38.14
340.079	-38.14
340.461	-99.42
340.843	-86.66
341.225	-91.76
341.607	-30.48
341.989	-96.87
342.371	-117.3
342.752	-135.17
343.134	-10.05
343.516	-40.69
343.897	-17.71
344.279	-33.03
344.661	74.21
345.042	10.37
345.423	41.01
345.805	92.08
346.186	104.85
346.567	163.58
346.949	86.97
347.33	168.68
347.711	189.11
348.092	245.28
348.473	168.68
348.854	201.88
349.235	227.41
349.616	201.88
349.997	321.89
350.378	324.44
350.758	319.33
351.139	337.21
351.52	319.33
351.9	298.9
352.281	349.97
352.661	337.21
353.042	311.67
353.422	342.31
353.803	398.49
354.183	444.45
354.563	424.02
354.943	395.93
355.324	411.25
355.704	367.85
356.084	319.33
356.464	360.19
356.844	426.57
357.224	372.95
357.603	383.17
357.983	321.89
358.363	383.17
358.743	390.83
359.122	329.55
359.502	380.61
359.882	380.61
360.261	314.23
360.641	413.81
361.02	372.95
361.399	337.21
361.779	429.13
362.158	365.29
362.537	334.65
362.916	314.23
363.296	306.56
363.675	357.63
364.054	329.55
364.433	329.55
364.812	344.87
365.19	367.85
365.569	316.78
365.948	326.99
366.327	321.89
366.705	334.65
367.084	306.56
367.463	388.27
367.841	296.35
368.22	344.87
368.598	329.55
368.977	388.27
369.355	337.21
369.733	306.56
370.111	288.69
370.49	342.31
370.868	326.99
371.246	378.06
371.624	357.63
372.002	306.56
372.38	360.19
372.758	403.59
373.136	357.63
373.513	332.1
373.891	342.31
374.269	316.78
374.646	309.12
375.024	306.56
375.402	385.72
375.779	370.4
376.157	337.21
376.534	378.06
376.911	362.74
377.289	406.15
377.666	367.85
378.043	413.81
378.42	362.74
378.797	329.55
379.175	304.01
379.552	393.38
379.929	390.83
380.305	355.08
380.682	362.74
381.059	401.04
381.436	406.15
381.813	275.92
382.189	375.51
382.566	344.87
382.943	367.85
383.319	390.83
383.696	326.99
384.072	304.01
384.448	324.44
384.825	347.42
385.201	306.56
385.577	337.21
385.953	406.15
386.329	385.72
386.706	383.17
387.082	362.74
387.458	383.17
387.834	406.15
388.209	395.93
388.585	365.29
388.961	385.72
389.337	365.29
389.713	385.72
390.088	349.97
390.464	452.11
390.839	365.29
391.215	385.72
391.59	380.61
391.966	378.06
392.341	378.06
392.716	380.61
393.092	304.01
393.467	378.06
393.842	378.06
394.217	378.06
394.592	316.78
394.967	319.33
395.342	362.74
395.717	383.17
396.092	383.17
396.467	403.59
396.841	311.67
397.216	293.8
397.591	355.08
397.965	334.65
398.34	421.47
398.714	390.83
399.089	375.51
399.463	380.61
399.838	375.51
400.212	326.99
400.586	408.7
400.961	375.51
401.335	408.7
401.709	304.01
402.083	342.31
402.457	347.42
402.831	304.01
403.205	362.74
403.579	370.4
403.953	349.97
404.326	357.63
404.7	416.36
405.074	344.87
405.447	383.17
405.821	413.81
406.195	424.02
406.568	319.33
406.942	380.61
407.315	365.29
407.688	324.44
408.062	431.68
408.435	357.63
408.808	311.67
409.181	426.57
409.554	385.72
409.927	367.85
410.3	444.45
410.673	406.15
411.046	416.36
411.419	416.36
411.792	332.1
412.165	329.55
412.537	370.4
412.91	319.33
413.283	339.76
413.655	380.61
414.028	352.53
414.4	311.67
414.773	337.21
415.145	357.63
415.517	372.95
415.889	421.47
416.262	406.15
416.634	398.49
417.006	413.81
417.378	421.47
417.75	408.7
418.122	339.76
418.494	393.38
418.866	416.36
419.238	408.7
419.609	424.02
419.981	342.31
420.353	370.4
420.725	421.47
421.096	326.99
421.468	334.65
421.839	477.64
422.211	418.91
422.582	337.21
422.953	321.89
423.325	370.4
423.696	416.36
424.067	362.74
424.438	408.7
424.809	411.25
425.18	347.42
425.551	319.33
425.922	355.08
426.293	367.85
426.664	388.27
427.035	449.55
427.406	434.23
427.776	365.29
428.147	342.31
428.518	413.81
428.888	398.49
429.259	370.4
429.629	411.25
429.999	411.25
430.37	406.15
430.74	388.27
431.11	434.23
431.481	444.45
431.851	367.85
432.221	406.15
432.591	403.59
432.961	431.68
433.331	431.68
433.701	393.38
434.071	452.11
434.441	457.21
434.81	352.53
435.18	357.63
435.55	298.9
435.919	367.85
436.289	401.04
436.658	406.15
437.028	418.91
437.397	408.7
437.767	459.77
438.136	424.02
438.505	349.97
438.875	362.74
439.244	480.19
439.613	372.95
439.982	314.23
440.351	352.53
440.72	375.51
441.089	413.81
441.458	401.04
441.827	365.29
442.196	365.29
442.564	462.32
442.933	426.57
443.302	413.81
443.67	390.83
444.039	462.32
444.407	434.23
444.776	360.19
445.144	426.57
445.513	424.02
445.881	337.21
446.249	401.04
446.617	383.17
446.986	370.4
447.354	380.61
447.722	418.91
448.09	393.38
448.458	360.19
448.826	372.95
449.194	413.81
449.561	378.06
449.929	344.87
450.297	413.81
450.665	365.29
451.032	406.15
451.4	464.87
451.767	487.85
452.135	411.25
452.502	395.93
452.87	436.79
453.237	431.68
453.604	487.85
453.971	383.17
454.339	452.11
454.706	426.57
455.073	372.95
455.44	365.29
455.807	421.47
456.174	408.7
456.541	365.29
456.908	339.76
457.274	457.21
457.641	424.02
458.008	413.81
458.374	436.79
458.741	357.63
459.108	365.29
459.474	395.93
459.841	365.29
460.207	390.83
460.573	403.59
460.94	395.93
461.306	416.36
461.672	426.57
462.038	342.31
462.404	385.72
462.771	385.72
463.137	416.36
463.503	421.47
463.868	452.11
464.234	401.04
464.6	447
464.966	447
465.332	388.27
465.697	393.38
466.063	378.06
466.429	385.72
466.794	329.55
467.16	372.95
467.525	395.93
467.89	398.49
468.256	421.47
468.621	403.59
468.986	395.93
469.351	390.83
469.717	352.53
470.082	464.87
470.447	416.36
470.812	447
471.177	403.59
471.542	452.11
471.906	452.11
472.271	431.68
472.636	431.68
473.001	370.4
473.365	383.17
473.73	393.38
474.094	357.63
474.459	357.63
474.823	398.49
475.188	411.25
475.552	406.15
475.917	383.17
476.281	418.91
476.645	393.38
477.009	418.91
477.373	365.29
477.737	395.93
478.101	434.23
478.465	452.11
478.829	424.02
479.193	436.79
479.557	380.61
479.921	380.61
480.284	378.06
480.648	447
481.012	406.15
481.375	337.21
481.739	367.85
482.102	424.02
482.466	390.83
482.829	441.89
483.193	362.74
483.556	408.7
483.919	370.4
484.282	444.45
484.645	352.53
485.009	401.04
485.372	408.7
485.735	403.59
486.098	411.25
486.46	401.04
486.823	393.38
487.186	434.23
487.549	467.43
487.912	378.06
488.274	367.85
488.637	411.25
488.999	390.83
489.362	395.93
489.724	337.21
490.087	424.02
490.449	424.02
490.811	424.02
491.174	426.57
491.536	424.02
491.898	436.79
492.26	406.15
492.622	401.04
492.984	344.87
493.346	431.68
493.708	385.72
494.07	426.57
494.432	403.59
494.794	375.51
495.155	449.55
495.517	421.47
495.879	370.4
496.24	421.47
496.602	452.11
496.963	424.02
497.325	337.21
497.686	413.81
498.048	378.06
498.409	424.02
498.77	401.04
499.131	403.59
499.492	416.36
499.854	444.45
500.215	426.57
500.576	378.06
500.937	375.51
501.298	411.25
501.658	360.19
502.019	395.93
502.38	388.27
502.741	406.15
503.101	408.7
503.462	378.06
503.823	462.32
504.183	434.23
504.543	344.87
504.904	326.99
505.264	434.23
505.625	439.34
505.985	441.89
506.345	390.83
506.705	378.06
507.065	421.47
507.426	362.74
507.786	367.85
508.146	383.17
508.505	439.34
508.865	393.38
509.225	349.97
509.585	475.09
509.945	375.51
510.304	362.74
510.664	421.47
511.024	418.91
511.383	385.72
511.743	441.89
512.102	421.47
512.462	388.27
512.821	475.09
513.18	395.93
513.539	439.34
513.899	464.87
514.258	459.77
514.617	365.29
514.976	467.43
515.335	367.85
515.694	436.79
516.053	337.21
516.412	370.4
516.771	380.61
517.129	398.49
517.488	360.19
517.847	352.53
518.205	388.27
518.564	367.85
518.922	378.06
519.281	434.23
519.639	436.79
519.998	403.59
520.356	418.91
520.714	347.42
521.073	421.47
521.431	395.93
521.789	385.72
522.147	347.42
522.505	429.13
522.863	413.81
523.221	395.93
523.579	426.57
523.937	429.13
524.295	383.17
524.652	441.89
525.01	416.36
525.368	426.57
525.725	398.49
526.083	365.29
526.44	362.74
526.798	360.19
527.155	482.75
527.513	367.85
527.87	309.12
528.227	329.55
528.584	357.63
528.942	408.7
529.299	418.91
529.656	449.55
530.013	362.74
530.37	429.13
530.727	434.23
531.083	388.27
531.44	378.06
531.797	349.97
532.154	424.02
532.511	401.04
532.867	449.55
533.224	424.02
533.58	403.59
533.937	436.79
534.293	403.59
534.65	413.81
535.006	360.19
535.362	349.97
535.718	375.51
536.075	426.57
536.431	355.08
536.787	424.02
537.143	424.02
537.499	426.57
537.855	411.25
538.211	344.87
538.567	380.61
538.923	360.19
539.278	385.72
539.634	429.13
539.99	452.11
540.345	362.74
540.701	362.74
541.056	365.29
541.412	408.7
541.767	347.42
542.123	406.15
542.478	436.79
542.833	390.83
543.188	469.98
543.544	372.95
543.899	370.4
544.254	390.83
544.609	434.23
544.964	403.59
545.319	385.72
545.674	388.27
546.029	424.02
546.383	360.19
546.738	406.15
547.093	426.57
547.447	383.17
547.802	355.08
548.157	393.38
548.511	370.4
548.866	401.04
549.22	421.47
549.574	349.97
549.929	457.21
550.283	449.55
550.637	403.59
550.991	429.13
551.345	403.59
551.699	406.15
552.053	403.59
552.407	385.72
552.761	439.34
553.115	411.25
553.469	401.04
553.823	334.65
554.176	421.47
554.53	316.78
554.884	372.95
555.237	541.48
555.591	385.72
555.944	515.94
556.298	459.77
556.651	482.75
557.005	408.7
557.358	416.36
557.711	452.11
558.064	444.45
558.417	388.27
558.771	500.62
559.124	401.04
559.477	454.66
559.83	411.25
560.182	362.74
560.535	418.91
560.888	469.98
561.241	390.83
561.594	398.49
561.946	365.29
562.299	403.59
562.651	383.17
563.004	342.31
563.356	429.13
563.709	426.57
564.061	344.87
564.413	390.83
564.766	298.9
565.118	429.13
565.47	426.57
565.822	421.47
566.174	418.91
566.526	403.59
566.878	408.7
567.23	390.83
567.582	424.02
567.934	429.13
568.286	339.76
568.638	372.95
568.989	418.91
569.341	395.93
569.693	408.7
570.044	449.55
570.396	390.83
570.747	403.59
571.098	462.32
571.45	403.59
571.801	372.95
572.152	434.23
572.504	390.83
572.855	357.63
573.206	401.04
573.557	467.43
573.908	406.15
574.259	413.81
574.61	372.95
574.961	362.74
575.311	447
575.662	436.79
576.013	416.36
576.364	416.36
576.714	457.21
577.065	431.68
577.415	390.83
577.766	406.15
578.116	421.47
578.467	390.83
578.817	383.17
579.167	388.27
579.518	406.15
579.868	429.13
580.218	357.63
580.568	390.83
580.918	408.7
581.268	421.47
581.618	367.85
581.968	326.99
582.318	393.38
582.668	393.38
583.017	393.38
583.367	475.09
583.717	424.02
584.066	447
584.416	436.79
584.765	401.04
585.115	370.4
585.464	385.72
585.814	406.15
586.163	365.29
586.512	393.38
586.862	393.38
587.211	411.25
587.56	401.04
587.909	416.36
588.258	380.61
588.607	406.15
588.956	362.74
589.305	342.31
589.654	426.57
590.002	469.98
590.351	431.68
590.7	482.75
591.048	447
591.397	416.36
591.746	454.66
592.094	393.38
592.443	367.85
592.791	390.83
593.139	406.15
593.488	390.83
593.836	390.83
594.184	413.81
594.532	434.23
594.88	390.83
595.228	449.55
595.576	383.17
595.924	324.44
596.272	339.76
596.62	393.38
596.968	367.85
597.316	406.15
597.664	339.76
598.011	367.85
598.359	421.47
598.706	408.7
599.054	380.61
599.402	388.27
599.749	393.38
600.096	378.06
600.444	398.49
600.791	464.87
601.138	413.81
601.485	344.87
601.833	403.59
602.18	388.27
602.527	395.93
602.874	421.47
603.221	385.72
603.568	431.68
603.914	383.17
604.261	344.87
604.608	378.06
604.955	411.25
605.301	408.7
605.648	416.36
605.995	401.04
606.341	372.95
606.688	321.89
607.034	403.59
607.38	349.97
607.727	352.53
608.073	355.08
608.419	355.08
608.765	401.04
609.112	388.27
609.458	385.72
609.804	462.32
610.15	395.93
610.496	398.49
610.842	408.7
611.187	421.47
611.533	449.55
611.879	385.72
612.225	403.59
612.57	418.91
612.916	469.98
613.261	439.34
613.607	436.79
613.952	452.11
614.298	444.45
614.643	408.7
614.989	367.85
615.334	365.29
615.679	383.17
616.024	421.47
616.369	388.27
616.714	398.49
617.059	395.93
617.404	375.51
617.749	408.7
618.094	439.34
618.439	485.3
618.784	411.25
619.129	487.85
619.473	429.13
619.818	388.27
620.163	426.57
620.507	398.49
620.852	380.61
621.196	480.19
621.54	352.53
621.885	349.97
622.229	367.85
622.573	383.17
622.918	413.81
623.262	441.89
623.606	403.59
623.95	398.49
624.294	339.76
624.638	452.11
624.982	367.85
625.326	406.15
625.67	357.63
626.013	383.17
626.357	383.17
626.701	408.7
627.044	431.68
627.388	413.81
627.731	436.79
628.075	355.08
628.418	372.95
628.762	388.27
629.105	411.25
629.448	365.29
629.792	365.29
630.135	467.43
630.478	398.49
630.821	403.59
631.164	355.08
631.507	380.61
631.85	436.79
632.193	337.21
632.536	406.15
632.879	329.55
633.221	342.31
633.564	349.97
633.907	352.53
634.249	355.08
634.592	388.27
634.935	385.72
635.277	378.06
635.619	411.25
635.962	344.87
636.304	347.42
636.646	278.48
636.989	352.53
637.331	357.63
637.673	401.04
638.015	418.91
638.357	413.81
638.699	395.93
639.041	393.38
639.383	434.23
639.725	398.49
640.067	380.61
640.408	370.4
640.75	390.83
641.092	390.83
641.433	408.7
641.775	372.95
642.116	454.66
642.458	393.38
642.799	367.85
643.141	424.02
643.482	385.72
643.823	365.29
644.164	395.93
644.506	464.87
644.847	395.93
645.188	334.65
645.529	309.12
645.87	360.19
646.211	401.04
646.552	360.19
646.893	395.93
647.233	449.55
647.574	367.85
647.915	367.85
648.255	434.23
648.596	355.08
648.937	383.17
649.277	408.7
649.618	449.55
649.958	411.25
650.298	421.47
650.639	395.93
650.979	403.59
651.319	398.49
651.659	383.17
651.999	403.59
652.339	365.29
652.679	406.15
653.019	418.91
653.359	360.19
653.699	319.33
654.039	385.72
654.379	411.25
654.719	444.45
655.058	475.09
655.398	347.42
655.737	503.18
656.077	418.91
656.416	401.04
656.756	401.04
657.095	459.77
657.435	378.06
657.774	352.53
658.113	408.7
658.452	398.49
658.792	464.87
659.131	434.23
659.47	344.87
659.809	449.55
660.148	485.3
660.487	421.47
660.826	401.04
661.164	380.61
661.503	388.27
661.842	385.72
662.181	357.63
662.519	372.95
662.858	393.38
663.196	388.27
663.535	390.83
663.873	393.38
664.212	365.29
664.55	457.21
664.888	403.59
665.226	418.91
665.565	355.08
665.903	508.28
666.241	406.15
666.579	380.61
666.917	398.49
667.255	339.76
667.593	324.44
667.931	390.83
668.268	332.1
668.606	408.7
668.944	424.02
669.282	329.55
669.619	372.95
669.957	329.55
670.294	372.95
670.632	416.36
670.969	378.06
671.307	426.57
671.644	378.06
671.981	349.97
672.318	385.72
672.656	347.42
672.993	365.29
673.33	352.53
673.667	398.49
674.004	349.97
674.341	337.21
674.678	411.25
675.015	390.83
675.351	403.59
675.688	357.63
676.025	347.42
676.362	357.63
676.698	429.13
677.035	411.25
677.371	378.06
677.708	408.7
678.044	383.17
678.38	383.17
678.717	352.53
679.053	439.34
679.389	362.74
679.725	365.29
680.062	395.93
680.398	349.97
680.734	332.1
681.07	406.15
681.406	360.19
681.742	411.25
682.077	372.95
682.413	344.87
682.749	380.61
683.085	342.31
683.42	413.81
683.756	329.55
684.091	395.93
684.427	352.53
684.762	416.36
685.098	395.93
685.433	408.7
685.768	421.47
686.104	380.61
686.439	360.19
686.774	365.29
687.109	393.38
687.444	429.13
687.779	337.21
688.114	383.17
688.449	395.93
688.784	324.44
689.119	378.06
689.454	321.89
689.789	360.19
690.123	375.51
690.458	447
690.792	424.02
691.127	365.29
691.461	424.02
691.796	365.29
692.13	390.83
692.465	416.36
692.799	411.25
693.133	329.55
693.467	390.83
693.802	372.95
694.136	349.97
694.47	378.06
694.804	403.59
695.138	429.13
695.472	314.23
695.806	398.49
696.139	337.21
696.473	309.12
696.807	383.17
697.141	319.33
697.474	306.56
697.808	332.1
698.141	337.21
698.475	426.57
698.808	383.17
699.142	424.02
699.475	329.55
699.808	424.02
700.142	380.61
700.475	416.36
700.808	380.61
701.141	418.91
701.474	334.65
701.807	383.17
702.14	344.87
702.473	383.17
702.806	357.63
703.139	360.19
703.472	375.51
703.804	380.61
704.137	441.89
704.47	424.02
704.802	444.45
705.135	395.93
705.467	352.53
705.8	388.27
706.132	365.29
706.464	421.47
706.797	411.25
707.129	436.79
707.461	378.06
707.793	401.04
708.125	429.13
708.457	434.23
708.789	375.51
709.121	388.27
709.453	378.06
709.785	393.38
710.117	421.47
710.449	390.83
710.781	362.74
711.112	352.53
711.444	344.87
711.775	332.1
712.107	378.06
712.438	370.4
712.77	406.15
713.101	360.19
713.433	416.36
713.764	378.06
714.095	321.89
714.426	344.87
714.757	372.95
715.089	406.15
715.42	429.13
715.751	390.83
716.082	401.04
716.412	365.29
716.743	380.61
717.074	444.45
717.405	372.95
717.736	393.38
718.066	416.36
718.397	388.27
718.727	370.4
719.058	355.08
719.388	401.04
719.719	380.61
720.049	403.59
720.38	393.38
720.71	329.55
721.04	408.7
721.37	398.49
721.7	395.93
722.031	431.68
722.361	342.31
722.691	337.21
723.021	408.7
723.35	401.04
723.68	367.85
724.01	375.51
724.34	398.49
724.67	372.95
724.999	367.85
725.329	372.95
725.658	431.68
725.988	398.49
726.317	416.36
726.647	362.74
726.976	344.87
727.306	352.53
727.635	398.49
727.964	344.87
728.293	349.97
728.622	390.83
728.952	380.61
729.281	332.1
729.61	380.61
729.939	429.13
730.267	342.31
730.596	367.85
730.925	385.72
731.254	398.49
731.583	383.17
731.911	370.4
732.24	408.7
732.568	441.89
732.897	337.21
733.225	365.29
733.554	383.17
733.882	418.91
734.21	347.42
734.539	362.74
734.867	431.68
735.195	314.23
735.523	469.98
735.851	403.59
736.179	349.97
736.507	418.91
736.835	447
737.163	372.95
737.491	365.29
737.819	434.23
738.147	408.7
738.474	349.97
738.802	380.61
739.13	370.4
739.457	406.15
739.785	408.7
740.112	393.38
740.44	398.49
740.767	378.06
741.094	355.08
741.422	408.7
741.749	304.01
742.076	372.95
742.403	347.42
742.73	380.61
743.057	398.49
743.384	329.55
743.711	385.72
744.038	413.81
744.365	378.06
744.692	357.63
745.018	434.23
745.345	339.76
745.672	401.04
745.998	449.55
746.325	424.02
746.651	380.61
746.978	372.95
747.304	367.85
747.631	388.27
747.957	395.93
748.283	321.89
748.61	406.15
748.936	357.63
749.262	362.74
749.588	385.72
749.914	380.61
750.24	452.11
750.566	372.95
750.892	370.4
751.218	370.4
751.543	332.1
751.869	398.49
752.195	355.08
752.521	393.38
752.846	321.89
753.172	380.61
753.497	439.34
753.823	375.51
754.148	329.55
754.473	360.19
754.799	413.81
755.124	362.74
755.449	360.19
755.774	429.13
756.1	408.7
756.425	395.93
756.75	447
757.075	352.53
757.4	429.13
757.724	464.87
758.049	395.93
758.374	375.51
758.699	385.72
759.024	413.81
759.348	370.4
759.673	426.57
759.997	401.04
760.322	390.83
760.646	462.32
760.971	393.38
761.295	344.87
761.619	424.02
761.944	454.66
762.268	388.27
762.592	344.87
762.916	339.76
763.24	411.25
763.564	349.97
763.888	439.34
764.212	462.32
764.536	367.85
764.86	424.02
765.184	362.74
765.508	418.91
765.831	321.89
766.155	505.73
766.478	390.83
766.802	365.29
767.126	418.91
767.449	416.36
767.772	462.32
768.096	398.49
768.419	380.61
768.742	337.21
769.066	365.29
769.389	429.13
769.712	434.23
770.035	449.55
770.358	352.53
770.681	401.04
771.004	413.81
771.327	365.29
771.65	362.74
771.972	360.19
772.295	418.91
772.618	416.36
772.941	457.21
773.263	426.57
773.586	403.59
773.908	454.66
774.231	492.96
774.553	462.32
774.875	492.96
775.198	477.64
775.52	492.96
775.842	567.01
776.164	582.33
776.487	556.8
776.809	482.75
777.131	582.33
777.453	635.95
777.775	643.61
778.096	656.38
778.418	689.57
778.74	817.24
779.062	807.03
779.384	868.31
779.705	975.55
780.027	1003.64
780.348	1031.72
780.67	1077.69
780.991	1251.31
781.313	1442.82
781.634	1460.69
781.955	1450.48
782.277	1483.67
782.598	1386.64
782.919	1450.48
783.24	1440.26
783.561	1501.55
783.882	1521.97
784.203	1621.55
784.524	1593.47
784.845	1761.99
785.166	1925.41
785.487	2093.93
785.807	2122.02
786.128	2180.74
786.449	2188.4
786.769	2341.61
787.09	2374.8
787.41	2428.42
787.731	2602.05
788.051	2696.53
788.372	2895.69
788.692	3025.91
789.012	3138.26
789.332	3112.73
789.653	3207.2
789.973	3225.08
790.293	3120.39
790.613	3064.21
790.933	3225.08
791.253	3452.33
791.573	3551.91
791.893	3373.17
792.212	3161.24
792.532	3184.22
792.852	3242.95
793.171	3347.64
793.491	3518.71
793.811	3679.58
794.13	3970.66
794.45	4333.24
794.769	4619.22
795.088	5395.45
795.408	5847.4
795.727	6692.56
796.046	6817.68
796.365	6787.04
796.684	6858.53
797.004	6518.93
797.323	6511.27
797.642	6830.45
797.96	6738.52
798.279	6529.15
798.598	6363.18
798.917	6284.02
799.236	6069.54
799.554	6350.41
799.873	6792.15
800.192	7052.59
800.51	7808.39
800.829	8446.73
801.147	7943.72
801.466	7445.81
801.784	7187.92
802.102	6600.64
802.421	6271.26
802.739	5849.95
803.057	5821.86
803.375	5849.95
803.693	6097.63
804.011	6557.23
804.329	6718.1
804.647	6674.69
804.965	6876.41
805.283	7159.83
805.601	7067.91
805.918	6988.76
806.236	6820.23
806.554	6986.2
806.871	6725.76
807.189	6240.62
807.507	5867.82
807.824	5717.17
808.141	5857.61
808.459	5579.29
808.776	5525.67
809.093	6008.26
809.411	6044.01
809.728	6074.65
810.045	6112.95
810.362	6485.74
810.679	6884.07
810.996	7310.48
811.313	7688.38
811.63	7560.71
811.947	7481.56
812.264	7650.08
812.58	7336.01
812.897	6667.03
813.214	6240.62
813.53	6166.57
813.847	6506.17
814.163	6301.9
814.48	6110.39
814.796	6215.08
815.113	6284.02
815.429	6077.2
815.745	6128.27
816.061	6015.92
816.378	5752.92
816.694	5239.69
817.01	5035.42
817.326	4923.07
817.642	4116.2
817.958	3722.98
818.274	3401.26
818.59	3283.8
818.905	3294.02
819.221	3135.71
819.537	3031.02
819.852	2783.34
820.168	2653.12
820.484	2944.2
820.799	2951.86
821.115	3082.09
821.43	3311.89
821.745	3179.12
822.061	2865.05
822.376	2834.41
822.691	2596.95
823.006	2589.28
823.322	2282.88
823.637	2213.94
823.952	2122.02
824.267	1915.19
824.582	1764.54
824.897	1606.23
825.211	1590.91
825.526	1483.67
825.841	1427.5
826.156	1284.51
826.47	1333.02
826.785	1243.65
827.1	1235.99
827.414	1085.35
827.729	1064.92
828.043	1070.02
828.357	1070.02
828.672	955.12
828.986	924.48
829.3	878.52
829.614	865.75
829.929	845.33
830.243	824.9
830.557	942.36
830.871	852.99
831.185	824.9
831.499	794.26
831.812	860.65
832.126	781.49
832.44	748.3
832.754	687.02
833.067	641.06
833.381	500.62
833.695	498.07
834.008	500.62
834.322	490.41
834.635	523.6
834.948	541.48
835.262	441.89
835.575	429.13
835.888	383.17
836.201	439.34
836.515	454.66
836.828	505.73
837.141	388.27
837.454	492.96
837.767	475.09
838.08	477.64
838.392	452.11
838.705	418.91
839.018	424.02
839.331	421.47
839.643	406.15
839.956	434.23
840.269	413.81
840.581	401.04
840.894	367.85
841.206	406.15
841.519	513.39
841.831	406.15
842.143	403.59
842.455	434.23
842.768	349.97
843.08	393.38
843.392	401.04
843.704	406.15
844.016	375.51
844.328	408.7
844.64	416.36
844.952	480.19
845.263	395.93
845.575	441.89
845.887	403.59
846.199	426.57
846.51	357.63
846.822	406.15
847.133	357.63
847.445	431.68
847.756	319.33
848.068	454.66
848.379	426.57
848.69	398.49
849.002	485.3
849.313	449.55
849.624	370.4
849.935	416.36
850.246	418.91
850.557	401.04
850.868	372.95
851.179	372.95
851.49	365.29
851.801	388.27
852.112	378.06
852.422	288.69
852.733	390.83
853.044	385.72
853.354	352.53
853.665	362.74
853.975	357.63
854.286	372.95
854.596	421.47
854.906	360.19
855.217	441.89
855.527	434.23
855.837	426.57
856.147	388.27
856.458	434.23
856.768	372.95
857.078	375.51
857.388	395.93
857.698	352.53
858.007	370.4
858.317	349.97
858.627	370.4
858.937	390.83
859.246	370.4
859.556	383.17
859.866	378.06
860.175	388.27
860.485	326.99
860.794	337.21
861.104	344.87
861.413	337.21
861.722	393.38
862.032	408.7
862.341	378.06
862.65	380.61
862.959	342.31
863.268	426.57
863.577	393.38
863.886	357.63
864.195	332.1
864.504	365.29
864.813	370.4
865.122	360.19
865.43	347.42
865.739	395.93
866.048	406.15
866.356	347.42
866.665	372.95
866.973	393.38
867.282	390.83
867.59	395.93
867.899	388.27
868.207	355.08
868.515	380.61
868.823	337.21
869.132	385.72
869.44	347.42
869.748	390.83
870.056	388.27
870.364	418.91
870.672	360.19
870.98	413.81
871.288	372.95
871.595	352.53
871.903	357.63
872.211	408.7
872.518	370.4
872.826	431.68
873.134	375.51
873.441	332.1
873.749	362.74
874.056	352.53
874.363	372.95
874.671	370.4
874.978	380.61
875.285	411.25
875.592	355.08
875.9	385.72
876.207	372.95
876.514	393.38
876.821	378.06
877.128	344.87
877.435	375.51
877.741	349.97
878.048	349.97
878.355	347.42
878.662	370.4
878.968	319.33
879.275	418.91
879.582	413.81
879.888	439.34
880.195	357.63
880.501	347.42
880.807	403.59
881.114	385.72
881.42	449.55
881.726	347.42
882.032	378.06
882.339	370.4
882.645	411.25
882.951	388.27
883.257	362.74
883.563	378.06
883.869	413.81
884.174	321.89
884.48	311.67
884.786	390.83
885.092	357.63
885.397	344.87
885.703	365.29
886.009	375.51
886.314	439.34
886.62	413.81
886.925	416.36
887.231	390.83
887.536	360.19
887.841	408.7
888.146	395.93
888.452	411.25
888.757	398.49
889.062	362.74
889.367	342.31
889.672	355.08
889.977	347.42
890.282	332.1
890.587	380.61
890.892	395.93
891.196	339.76
891.501	388.27
891.806	360.19
892.11	342.31
892.415	390.83
892.72	388.27
893.024	388.27
893.328	424.02
893.633	426.57
893.937	362.74
894.242	347.42
894.546	347.42
894.85	370.4
895.154	365.29
895.458	344.87
895.762	403.59
896.066	439.34
896.37	398.49
896.674	370.4
896.978	355.08
897.282	339.76
897.586	357.63
897.89	367.85
898.193	393.38
898.497	390.83
898.801	367.85
899.104	362.74
899.408	311.67
899.711	360.19
900.014	408.7
900.318	357.63
900.621	370.4
900.924	258.05
901.228	367.85
901.531	408.7
901.834	367.85
902.137	388.27
902.44	347.42
902.743	357.63
903.046	357.63
903.349	378.06
903.652	378.06
903.955	464.87
904.257	372.95
904.56	418.91
904.863	418.91
905.165	424.02
905.468	395.93
905.77	375.51
906.073	388.27
906.375	444.45
906.678	401.04
906.98	278.48
907.282	355.08
907.584	372.95
907.887	324.44
908.189	403.59
908.491	383.17
908.793	457.21
909.095	447
909.397	385.72
909.699	436.79
910.001	416.36
910.302	395.93
910.604	329.55
910.906	349.97
911.208	344.87
911.509	339.76
911.811	355.08
912.112	316.78
912.414	408.7
912.715	421.47
913.017	454.66
913.318	390.83
913.619	383.17
913.92	352.53
914.222	337.21
914.523	349.97
914.824	352.53
915.125	355.08
915.426	416.36
915.727	383.17
916.028	424.02
916.329	385.72
916.63	395.93
916.93	426.57
917.231	380.61
917.532	370.4
917.832	355.08
918.133	334.65
918.434	360.19
918.734	347.42
919.034	332.1
919.335	349.97
919.635	401.04
919.935	444.45
920.236	378.06
920.536	344.87
920.836	393.38
921.136	388.27
921.436	416.36
921.736	378.06
922.036	421.47
922.336	436.79
922.636	393.38
922.936	406.15
923.236	393.38
923.535	332.1
923.835	421.47
924.135	370.4
924.434	406.15
924.734	298.9
925.033	344.87
925.333	306.56
925.632	383.17
925.932	375.51
926.231	403.59
926.53	355.08
926.83	434.23
927.129	411.25
927.428	395.93
927.727	355.08
928.026	375.51
928.325	421.47
928.624	362.74
928.923	365.29
929.222	421.47
929.52	411.25
929.819	383.17
930.118	385.72
930.417	370.4
930.715	357.63
931.014	362.74
931.312	467.43
931.611	401.04
931.909	459.77
932.207	388.27
932.506	365.29
932.804	411.25
933.102	393.38
933.401	372.95
933.699	286.14
933.997	406.15
934.295	403.59
934.593	380.61
934.891	421.47
935.189	393.38
935.487	365.29
935.784	375.51
936.082	388.27
936.38	311.67
936.677	431.68
936.975	426.57
937.273	339.76
937.57	342.31
937.868	360.19
938.165	321.89
938.463	411.25
938.76	439.34
939.057	401.04
939.354	362.74
939.652	319.33
939.949	393.38
940.246	383.17
940.543	424.02
940.84	395.93
941.137	362.74
941.434	380.61
941.731	426.57
942.028	411.25
942.324	472.53
942.621	349.97
942.918	362.74
943.214	411.25
943.511	388.27
943.807	367.85
944.104	378.06
944.4	370.4
944.697	337.21
944.993	459.77
945.29	372.95
945.586	388.27
945.882	439.34
946.178	383.17
946.474	398.49
946.77	406.15
947.066	326.99
947.362	362.74
947.658	375.51
947.954	326.99
948.25	344.87
948.546	398.49
948.842	436.79
949.137	380.61
949.433	388.27
949.729	375.51
950.024	383.17
950.32	411.25
950.615	393.38
950.91	352.53
951.206	365.29
951.501	334.65
951.796	378.06
952.092	344.87
952.387	467.43
952.682	355.08
952.977	365.29
953.272	367.85
953.567	349.97
953.862	380.61
954.157	365.29
954.452	436.79
954.747	362.74
955.041	337.21
955.336	408.7
955.631	390.83
955.925	344.87
956.22	406.15
956.514	408.7
956.809	413.81
957.103	342.31
957.398	375.51
957.692	431.68
957.986	383.17
958.281	401.04
958.575	406.15
958.869	385.72
959.163	378.06
959.457	355.08
959.751	378.06
960.045	360.19
960.339	349.97
960.633	408.7
960.927	380.61
961.221	326.99
961.514	388.27
961.808	337.21
962.102	357.63
962.395	347.42
962.689	265.71
962.982	383.17
963.276	362.74
963.569	413.81
963.862	418.91
964.156	378.06
964.449	395.93
964.742	421.47
965.035	390.83
965.328	393.38
965.622	362.74
965.915	426.57
966.208	347.42
966.5	362.74
966.793	390.83
967.086	426.57
967.379	426.57
967.672	372.95
967.964	324.44
968.257	321.89
968.55	375.51
968.842	416.36
969.135	385.72
969.427	380.61
969.72	441.89
970.012	411.25
970.304	421.47
970.597	370.4
970.889	383.17
971.181	383.17
971.473	372.95
971.765	393.38
972.057	347.42
972.349	339.76
972.641	360.19
972.933	447
973.225	431.68
973.517	388.27
973.809	434.23
974.1	398.49
974.392	355.08
974.684	403.59
974.975	342.31
975.267	375.51
975.558	311.67
975.85	401.04
976.141	360.19
976.432	370.4
976.724	385.72
977.015	416.36
977.306	357.63
977.597	378.06
977.888	326.99
978.179	385.72
978.47	401.04
978.761	357.63
979.052	367.85
979.343	429.13
979.634	365.29
979.925	424.02
980.215	413.81
980.506	301.46
980.797	388.27
981.087	304.01
981.378	349.97
981.668	395.93
981.959	355.08
982.249	408.7
982.54	380.61
982.83	347.42
983.12	380.61
983.41	380.61
983.701	311.67
983.991	337.21
984.281	429.13
984.571	408.7
984.861	342.31
985.151	344.87
985.441	367.85
985.73	403.59
986.02	388.27
986.31	411.25
986.6	390.83
986.889	362.74
987.179	319.33
987.469	383.17
987.758	378.06
988.048	398.49
988.337	324.44
988.626	424.02
988.916	380.61
989.205	398.49
989.494	383.17
989.783	385.72
990.073	298.9
990.362	342.31
990.651	383.17
990.94	390.83
991.229	370.4
991.518	357.63
991.806	406.15
992.095	344.87
992.384	337.21
992.673	342.31
992.961	408.7
993.25	390.83
993.539	406.15
993.827	326.99
994.116	349.97
994.404	342.31
994.692	321.89
994.981	390.83
995.269	352.53
995.557	388.27
995.846	395.93
996.134	421.47
996.422	424.02
996.71	426.57
996.998	413.81
997.286	416.36
997.574	367.85
997.862	339.76
998.15	431.68
998.437	339.76
998.725	355.08
999.013	362.74
999.3	286.14
999.588	332.1
999.876	352.53
1000.163	375.51
1000.45	355.08
1000.738	362.74
1001.025	339.76
1001.313	375.51
1001.6	395.93
1001.887	411.25
1002.174	380.61
1002.461	367.85
1002.748	360.19
1003.036	365.29
1003.322	357.63
1003.609	362.74
1003.896	378.06
1004.183	408.7
1004.47	370.4
1004.757	424.02
1005.043	401.04
1005.33	388.27
1005.617	342.31
1005.903	352.53
1006.19	355.08
1006.476	326.99
1006.763	383.17
1007.049	304.01
1007.335	339.76
1007.622	436.79
1007.908	434.23
1008.194	365.29
1008.48	309.12
1008.766	357.63
1009.053	304.01
1009.339	329.55
1009.625	416.36
1009.91	418.91
1010.196	357.63
1010.482	375.51
1010.768	418.91
1011.054	421.47
1011.339	434.23
1011.625	362.74
1011.911	324.44
1012.196	316.78
1012.482	357.63
1012.767	380.61
1013.052	385.72
1013.338	395.93
1013.623	393.38
1013.908	383.17
1014.194	342.31
1014.479	329.55
1014.764	278.48
1015.049	360.19
1015.334	344.87
1015.619	344.87
1015.904	418.91
1016.189	378.06
1016.474	372.95
1016.758	406.15
1017.043	385.72
1017.328	403.59
1017.613	434.23
1017.897	360.19
1018.182	421.47
1018.466	370.4
1018.751	329.55
1019.035	329.55
1019.32	408.7
1019.604	418.91
1019.888	357.63
1020.172	357.63
1020.457	357.63
