Data from 2025-12-03_xpw_interference_micrometer_626_FLMS141361__1__24.txt Node

Date: Wed Dec 03 15:18:22 MST 2025
User: james
Spectrometer: FLMS14136
Trigger mode: 0
Integration Time (sec): 1.000000E-1
Scans to average: 1
Electric dark correction enabled: true
Nonlinearity correction enabled: false
Boxcar width: 0
XAxis mode: Wavelengths
Number of Pixels in Spectrum: 2048
>>>>>Begin Spectral Data<<<<<
339.315	-58.09
339.697	-58.09
340.079	-58.09
340.461	-93.84
340.843	-81.07
341.225	-68.3
341.607	-106.6
341.989	-144.9
342.371	-55.54
342.752	-58.09
343.134	-68.3
343.516	-60.64
343.897	26.17
344.279	0.64
344.661	3.19
345.042	-37.66
345.423	100.22
345.805	56.81
346.186	95.11
346.567	161.5
346.949	156.39
347.33	148.73
347.711	158.95
348.092	151.29
348.473	230.44
348.854	222.78
349.235	312.15
349.616	266.19
349.997	255.98
350.378	363.22
350.758	312.15
351.139	271.3
351.52	304.49
351.9	294.28
352.281	363.22
352.661	347.9
353.042	368.32
353.422	383.65
353.803	342.79
354.183	353
354.563	340.24
354.943	370.88
355.324	373.43
355.704	393.86
356.084	388.75
356.464	375.98
356.844	391.31
357.224	358.11
357.603	358.11
357.983	345.34
358.363	434.71
358.743	370.88
359.122	335.13
359.502	396.41
359.882	347.9
360.261	368.32
360.641	370.88
361.02	455.14
361.399	393.86
361.779	350.45
362.158	375.98
362.537	304.49
362.916	332.58
363.296	363.22
363.675	330.02
364.054	332.58
364.433	317.26
364.812	307.04
365.19	301.94
365.569	299.38
365.948	353
366.327	314.7
366.705	314.7
367.084	327.47
367.463	370.88
367.841	307.04
368.22	368.32
368.598	383.65
368.977	365.77
369.355	396.41
369.733	365.77
370.111	381.09
370.49	327.47
370.868	286.62
371.246	342.79
371.624	307.04
372.002	314.7
372.38	340.24
372.758	386.2
373.136	378.54
373.513	350.45
373.891	317.26
374.269	355.56
374.646	398.97
375.024	386.2
375.402	304.49
375.779	406.63
376.157	322.36
376.534	330.02
376.911	332.58
377.289	353
377.666	363.22
378.043	317.26
378.42	355.56
378.797	404.07
379.175	332.58
379.552	332.58
379.929	319.81
380.305	393.86
380.682	414.29
381.059	353
381.436	353
381.813	411.73
382.189	414.29
382.566	363.22
382.943	388.75
383.319	301.94
383.696	370.88
384.072	465.35
384.448	378.54
384.825	365.77
385.201	378.54
385.577	330.02
385.953	373.43
386.329	355.56
386.706	358.11
387.082	340.24
387.458	437.27
387.834	388.75
388.209	363.22
388.585	360.66
388.961	421.95
389.337	342.79
389.713	381.09
390.088	393.86
390.464	319.81
390.839	360.66
391.215	398.97
391.59	299.38
391.966	353
392.341	416.84
392.716	457.69
393.092	437.27
393.467	427.05
393.842	419.39
394.217	388.75
394.592	414.29
394.967	347.9
395.342	332.58
395.717	432.16
396.092	411.73
396.467	383.65
396.841	365.77
397.216	358.11
397.591	381.09
397.965	452.59
398.34	434.71
398.714	363.22
399.089	370.88
399.463	324.92
399.838	391.31
400.212	363.22
400.586	332.58
400.961	375.98
401.335	347.9
401.709	381.09
402.083	353
402.457	383.65
402.831	368.32
403.205	330.02
403.579	437.27
403.953	373.43
404.326	358.11
404.7	391.31
405.074	437.27
405.447	296.83
405.821	322.36
406.195	375.98
406.568	324.92
406.942	363.22
407.315	360.66
407.688	388.75
408.062	393.86
408.435	434.71
408.808	358.11
409.181	437.27
409.554	447.48
409.927	434.71
410.3	378.54
410.673	335.13
411.046	378.54
411.419	373.43
411.792	378.54
412.165	355.56
412.537	307.04
412.91	324.92
413.283	450.03
413.655	340.24
414.028	393.86
414.4	360.66
414.773	332.58
415.145	401.52
415.517	294.28
415.889	414.29
416.262	401.52
416.634	373.43
417.006	340.24
417.378	317.26
417.75	347.9
418.122	447.48
418.494	332.58
418.866	360.66
419.238	457.69
419.609	355.56
419.981	393.86
420.353	434.71
420.725	427.05
421.096	383.65
421.468	393.86
421.839	368.32
422.211	368.32
422.582	398.97
422.953	434.71
423.325	363.22
423.696	355.56
424.067	350.45
424.438	370.88
424.809	388.75
425.18	373.43
425.551	429.61
425.922	345.34
426.293	386.2
426.664	437.27
427.035	439.82
427.406	401.52
427.776	439.82
428.147	434.71
428.518	419.39
428.888	442.37
429.259	442.37
429.629	411.73
429.999	383.65
430.37	457.69
430.74	345.34
431.11	386.2
431.481	375.98
431.851	475.57
432.221	393.86
432.591	444.93
432.961	342.79
433.331	393.86
433.701	398.97
434.071	342.79
434.441	409.18
434.81	444.93
435.18	424.5
435.55	386.2
435.919	393.86
436.289	416.84
436.658	398.97
437.028	450.03
437.397	373.43
437.767	378.54
438.136	434.71
438.505	396.41
438.875	396.41
439.244	439.82
439.613	411.73
439.982	388.75
440.351	337.68
440.72	398.97
441.089	340.24
441.458	391.31
441.827	355.56
442.196	381.09
442.564	518.97
442.933	427.05
443.302	360.66
443.67	373.43
444.039	350.45
444.407	347.9
444.776	353
445.144	406.63
445.513	378.54
445.881	299.38
446.249	355.56
446.617	398.97
446.986	393.86
447.354	416.84
447.722	437.27
448.09	393.86
448.458	421.95
448.826	378.54
449.194	409.18
449.561	337.68
449.929	373.43
450.297	350.45
450.665	396.41
451.032	462.8
451.4	401.52
451.767	460.25
452.135	396.41
452.502	398.97
452.87	360.66
453.237	365.77
453.604	442.37
453.971	414.29
454.339	391.31
454.706	350.45
455.073	363.22
455.44	411.73
455.807	373.43
456.174	401.52
456.541	386.2
456.908	353
457.274	365.77
457.641	409.18
458.008	427.05
458.374	450.03
458.741	332.58
459.108	373.43
459.474	360.66
459.841	404.07
460.207	406.63
460.573	460.25
460.94	368.32
461.306	340.24
461.672	409.18
462.038	424.5
462.404	375.98
462.771	350.45
463.137	319.81
463.503	432.16
463.868	434.71
464.234	444.93
464.6	375.98
464.966	483.23
465.332	416.84
465.697	404.07
466.063	307.04
466.429	342.79
466.794	386.2
467.16	439.82
467.525	398.97
467.89	350.45
468.256	388.75
468.621	398.97
468.986	447.48
469.351	375.98
469.717	391.31
470.082	375.98
470.447	355.56
470.812	409.18
471.177	393.86
471.542	416.84
471.906	383.65
472.271	455.14
472.636	416.84
473.001	373.43
473.365	409.18
473.73	358.11
474.094	368.32
474.459	388.75
474.823	439.82
475.188	370.88
475.552	386.2
475.917	375.98
476.281	421.95
476.645	442.37
477.009	488.33
477.373	465.35
477.737	460.25
478.101	473.01
478.465	401.52
478.829	398.97
479.193	368.32
479.557	421.95
479.921	437.27
480.284	432.16
480.648	442.37
481.012	411.73
481.375	375.98
481.739	414.29
482.102	396.41
482.466	370.88
482.829	411.73
483.193	419.39
483.556	424.5
483.919	404.07
484.282	411.73
484.645	365.77
485.009	432.16
485.372	322.36
485.735	419.39
486.098	437.27
486.46	373.43
486.823	381.09
487.186	358.11
487.549	319.81
487.912	373.43
488.274	368.32
488.637	309.6
488.999	375.98
489.362	375.98
489.724	434.71
490.087	447.48
490.449	386.2
490.811	383.65
491.174	404.07
491.536	261.08
491.898	393.86
492.26	358.11
492.622	378.54
492.984	516.42
493.346	434.71
493.708	332.58
494.07	406.63
494.432	411.73
494.794	378.54
495.155	332.58
495.517	444.93
495.879	444.93
496.24	442.37
496.602	513.87
496.963	419.39
497.325	404.07
497.686	434.71
498.048	462.8
498.409	391.31
498.77	350.45
499.131	439.82
499.492	398.97
499.854	401.52
500.215	345.34
500.576	386.2
500.937	401.52
501.298	365.77
501.658	386.2
502.019	450.03
502.38	424.5
502.741	386.2
503.101	460.25
503.462	363.22
503.823	386.2
504.183	404.07
504.543	414.29
504.904	457.69
505.264	434.71
505.625	434.71
505.985	419.39
506.345	465.35
506.705	455.14
507.065	337.68
507.426	378.54
507.786	401.52
508.146	424.5
508.505	393.86
508.865	442.37
509.225	432.16
509.585	452.59
509.945	378.54
510.304	439.82
510.664	421.95
511.024	452.59
511.383	340.24
511.743	401.52
512.102	437.27
512.462	473.01
512.821	360.66
513.18	452.59
513.539	411.73
513.899	404.07
514.258	432.16
514.617	442.37
514.976	432.16
515.335	447.48
515.694	353
516.053	467.91
516.412	406.63
516.771	370.88
517.129	353
517.488	312.15
517.847	317.26
518.205	337.68
518.564	330.02
518.922	337.68
519.281	388.75
519.639	391.31
519.998	375.98
520.356	360.66
520.714	411.73
521.073	386.2
521.431	401.52
521.789	414.29
522.147	391.31
522.505	421.95
522.863	363.22
523.221	457.69
523.579	342.79
523.937	335.13
524.295	421.95
524.652	373.43
525.01	439.82
525.368	337.68
525.725	368.32
526.083	386.2
526.44	424.5
526.798	370.88
527.155	360.66
527.513	391.31
527.87	363.22
528.227	419.39
528.584	452.59
528.942	370.88
529.299	442.37
529.656	475.57
530.013	437.27
530.37	340.24
530.727	421.95
531.083	406.63
531.44	332.58
531.797	460.25
532.154	386.2
532.511	411.73
532.867	373.43
533.224	337.68
533.58	427.05
533.937	383.65
534.293	416.84
534.65	307.04
535.006	355.56
535.362	393.86
535.718	383.65
536.075	450.03
536.431	442.37
536.787	363.22
537.143	398.97
537.499	353
537.855	386.2
538.211	350.45
538.567	414.29
538.923	391.31
539.278	414.29
539.634	450.03
539.99	421.95
540.345	363.22
540.701	375.98
541.056	434.71
541.412	355.56
541.767	391.31
542.123	393.86
542.478	424.5
542.833	429.61
543.188	337.68
543.544	457.69
543.899	373.43
544.254	414.29
544.609	442.37
544.964	411.73
545.319	383.65
545.674	398.97
546.029	439.82
546.383	432.16
546.738	416.84
547.093	414.29
547.447	416.84
547.802	370.88
548.157	432.16
548.511	434.71
548.866	444.93
549.22	398.97
549.574	406.63
549.929	350.45
550.283	398.97
550.637	276.4
550.991	375.98
551.345	398.97
551.699	396.41
552.053	386.2
552.407	304.49
552.761	393.86
553.115	421.95
553.469	388.75
553.823	398.97
554.176	404.07
554.53	373.43
554.884	416.84
555.237	621.11
555.591	447.48
555.944	465.35
556.298	439.82
556.651	455.14
557.005	439.82
557.358	429.61
557.711	332.58
558.064	452.59
558.417	434.71
558.771	427.05
559.124	452.59
559.477	495.99
559.83	421.95
560.182	424.5
560.535	439.82
560.888	447.48
561.241	475.57
561.594	447.48
561.946	332.58
562.299	386.2
562.651	373.43
563.004	368.32
563.356	419.39
563.709	398.97
564.061	485.78
564.413	398.97
564.766	427.05
565.118	411.73
565.47	360.66
565.822	419.39
566.174	406.63
566.526	429.61
566.878	452.59
567.23	391.31
567.582	345.34
567.934	342.79
568.286	406.63
568.638	345.34
568.989	401.52
569.341	393.86
569.693	439.82
570.044	419.39
570.396	388.75
570.747	427.05
571.098	444.93
571.45	396.41
571.801	365.77
572.152	462.8
572.504	414.29
572.855	414.29
573.206	460.25
573.557	404.07
573.908	355.56
574.259	398.97
574.61	398.97
574.961	416.84
575.311	414.29
575.662	393.86
576.013	365.77
576.364	381.09
576.714	404.07
577.065	419.39
577.415	404.07
577.766	398.97
578.116	324.92
578.467	342.79
578.817	396.41
579.167	363.22
579.518	381.09
579.868	444.93
580.218	398.97
580.568	439.82
580.918	409.18
581.268	452.59
581.618	450.03
581.968	309.6
582.318	335.13
582.668	340.24
583.017	355.56
583.367	406.63
583.717	319.81
584.066	393.86
584.416	401.52
584.765	444.93
585.115	424.5
585.464	396.41
585.814	363.22
586.163	360.66
586.512	424.5
586.862	327.47
587.211	383.65
587.56	429.61
587.909	416.84
588.258	409.18
588.607	447.48
588.956	398.97
589.305	340.24
589.654	419.39
590.002	375.98
590.351	439.82
590.7	375.98
591.048	411.73
591.397	360.66
591.746	398.97
592.094	375.98
592.443	414.29
592.791	442.37
593.139	375.98
593.488	391.31
593.836	353
594.184	450.03
594.532	396.41
594.88	485.78
595.228	457.69
595.576	475.57
595.924	427.05
596.272	444.93
596.62	434.71
596.968	368.32
597.316	353
597.664	414.29
598.011	368.32
598.359	434.71
598.706	375.98
599.054	419.39
599.402	434.71
599.749	447.48
600.096	404.07
600.444	398.97
600.791	411.73
601.138	444.93
601.485	455.14
601.833	322.36
602.18	406.63
602.527	370.88
602.874	373.43
603.221	398.97
603.568	398.97
603.914	439.82
604.261	432.16
604.608	393.86
604.955	452.59
605.301	452.59
605.648	442.37
605.995	421.95
606.341	368.32
606.688	401.52
607.034	411.73
607.38	360.66
607.727	324.92
608.073	406.63
608.419	416.84
608.765	432.16
609.112	416.84
609.458	404.07
609.804	398.97
610.15	485.78
610.496	432.16
610.842	404.07
611.187	327.47
611.533	396.41
611.879	358.11
612.225	396.41
612.57	429.61
612.916	432.16
613.261	434.71
613.607	411.73
613.952	388.75
614.298	350.45
614.643	411.73
614.989	378.54
615.334	355.56
615.679	345.34
616.024	416.84
616.369	365.77
616.714	421.95
617.059	419.39
617.404	439.82
617.749	419.39
618.094	373.43
618.439	437.27
618.784	437.27
619.129	396.41
619.473	375.98
619.818	455.14
620.163	373.43
620.507	368.32
620.852	347.9
621.196	368.32
621.54	450.03
621.885	455.14
622.229	401.52
622.573	360.66
622.918	365.77
623.262	447.48
623.606	404.07
623.95	401.52
624.294	427.05
624.638	393.86
624.982	414.29
625.326	398.97
625.67	427.05
626.013	434.71
626.357	393.86
626.701	398.97
627.044	370.88
627.388	409.18
627.731	470.46
628.075	424.5
628.418	386.2
628.762	345.34
629.105	370.88
629.448	284.06
629.792	368.32
630.135	388.75
630.478	409.18
630.821	396.41
631.164	353
631.507	335.13
631.85	411.73
632.193	330.02
632.536	393.86
632.879	332.58
633.221	409.18
633.564	370.88
633.907	386.2
634.249	332.58
634.592	444.93
634.935	386.2
635.277	401.52
635.619	414.29
635.962	414.29
636.304	393.86
636.646	424.5
636.989	401.52
637.331	342.79
637.673	419.39
638.015	373.43
638.357	393.86
638.699	386.2
639.041	393.86
639.383	396.41
639.725	526.63
640.067	337.68
640.408	322.36
640.75	409.18
641.092	404.07
641.433	358.11
641.775	396.41
642.116	373.43
642.458	360.66
642.799	444.93
643.141	360.66
643.482	337.68
643.823	332.58
644.164	370.88
644.506	404.07
644.847	421.95
645.188	386.2
645.529	404.07
645.87	401.52
646.211	383.65
646.552	401.52
646.893	429.61
647.233	398.97
647.574	457.69
647.915	429.61
648.255	437.27
648.596	375.98
648.937	427.05
649.277	424.5
649.618	330.02
649.958	439.82
650.298	409.18
650.639	444.93
650.979	429.61
651.319	381.09
651.659	391.31
651.999	437.27
652.339	373.43
652.679	427.05
653.019	442.37
653.359	370.88
653.699	409.18
654.039	383.65
654.379	419.39
654.719	365.77
655.058	345.34
655.398	381.09
655.737	404.07
656.077	309.6
656.416	444.93
656.756	378.54
657.095	335.13
657.435	373.43
657.774	375.98
658.113	281.51
658.452	442.37
658.792	439.82
659.131	363.22
659.47	444.93
659.809	414.29
660.148	365.77
660.487	386.2
660.826	414.29
661.164	434.71
661.503	444.93
661.842	450.03
662.181	373.43
662.519	490.89
662.858	419.39
663.196	398.97
663.535	447.48
663.873	414.29
664.212	335.13
664.55	416.84
664.888	421.95
665.226	414.29
665.565	409.18
665.903	598.13
666.241	475.57
666.579	401.52
666.917	404.07
667.255	386.2
667.593	388.75
667.931	460.25
668.268	330.02
668.606	378.54
668.944	439.82
669.282	375.98
669.619	381.09
669.957	375.98
670.294	421.95
670.632	396.41
670.969	363.22
671.307	324.92
671.644	393.86
671.981	421.95
672.318	404.07
672.656	388.75
672.993	373.43
673.33	393.86
673.667	360.66
674.004	368.32
674.341	421.95
674.678	368.32
675.015	358.11
675.351	396.41
675.688	406.63
676.025	442.37
676.362	391.31
676.698	406.63
677.035	378.54
677.371	424.5
677.708	375.98
678.044	375.98
678.38	439.82
678.717	467.91
679.053	460.25
679.389	455.14
679.725	409.18
680.062	498.55
680.398	434.71
680.734	411.73
681.07	388.75
681.406	427.05
681.742	404.07
682.077	347.9
682.413	370.88
682.749	416.84
683.085	455.14
683.42	409.18
683.756	406.63
684.091	360.66
684.427	378.54
684.762	373.43
685.098	391.31
685.433	414.29
685.768	345.34
686.104	411.73
686.439	373.43
686.774	375.98
687.109	404.07
687.444	353
687.779	401.52
688.114	409.18
688.449	353
688.784	419.39
689.119	434.71
689.454	350.45
689.789	427.05
690.123	368.32
690.458	375.98
690.792	398.97
691.127	381.09
691.461	383.65
691.796	411.73
692.13	337.68
692.465	421.95
692.799	457.69
693.133	388.75
693.467	421.95
693.802	350.45
694.136	442.37
694.47	424.5
694.804	421.95
695.138	365.77
695.472	396.41
695.806	319.81
696.139	358.11
696.473	406.63
696.807	393.86
697.141	404.07
697.474	406.63
697.808	457.69
698.141	383.65
698.475	368.32
698.808	470.46
699.142	439.82
699.475	388.75
699.808	353
700.142	375.98
700.475	401.52
700.808	442.37
701.141	437.27
701.474	398.97
701.807	424.5
702.14	432.16
702.473	396.41
702.806	409.18
703.139	442.37
703.472	444.93
703.804	370.88
704.137	373.43
704.47	416.84
704.802	401.52
705.135	358.11
705.467	370.88
705.8	383.65
706.132	393.86
706.464	457.69
706.797	411.73
707.129	386.2
707.461	404.07
707.793	337.68
708.125	393.86
708.457	370.88
708.789	378.54
709.121	373.43
709.453	375.98
709.785	363.22
710.117	386.2
710.449	401.52
710.781	419.39
711.112	398.97
711.444	434.71
711.775	419.39
712.107	330.02
712.438	304.49
712.77	406.63
713.101	363.22
713.433	324.92
713.764	375.98
714.095	434.71
714.426	439.82
714.757	388.75
715.089	398.97
715.42	378.54
715.751	383.65
716.082	401.52
716.412	370.88
716.743	375.98
717.074	427.05
717.405	398.97
717.736	396.41
718.066	345.34
718.397	342.79
718.727	363.22
719.058	401.52
719.388	368.32
719.719	439.82
720.049	404.07
720.38	465.35
720.71	370.88
721.04	442.37
721.37	381.09
721.7	322.36
722.031	414.29
722.361	406.63
722.691	319.81
723.021	365.77
723.35	409.18
723.68	419.39
724.01	419.39
724.34	437.27
724.67	460.25
724.999	370.88
725.329	432.16
725.658	447.48
725.988	388.75
726.317	396.41
726.647	355.56
726.976	375.98
727.306	383.65
727.635	335.13
727.964	368.32
728.293	332.58
728.622	373.43
728.952	434.71
729.281	393.86
729.61	345.34
729.939	373.43
730.267	368.32
730.596	393.86
730.925	368.32
731.254	332.58
731.583	373.43
731.911	360.66
732.24	368.32
732.568	416.84
732.897	424.5
733.225	388.75
733.554	396.41
733.882	401.52
734.21	393.86
734.539	368.32
734.867	432.16
735.195	373.43
735.523	319.81
735.851	378.54
736.179	345.34
736.507	432.16
736.835	388.75
737.163	432.16
737.491	375.98
737.819	378.54
738.147	345.34
738.474	355.56
738.802	391.31
739.13	409.18
739.457	386.2
739.785	398.97
740.112	424.5
740.44	340.24
740.767	401.52
741.094	393.86
741.422	324.92
741.749	353
742.076	452.59
742.403	411.73
742.73	388.75
743.057	409.18
743.384	388.75
743.711	411.73
744.038	350.45
744.365	437.27
744.692	396.41
745.018	381.09
745.345	375.98
745.672	401.52
745.998	358.11
746.325	373.43
746.651	401.52
746.978	368.32
747.304	365.77
747.631	355.56
747.957	378.54
748.283	462.8
748.61	386.2
748.936	404.07
749.262	404.07
749.588	427.05
749.914	365.77
750.24	409.18
750.566	327.47
750.892	368.32
751.218	409.18
751.543	404.07
751.869	416.84
752.195	340.24
752.521	452.59
752.846	396.41
753.172	398.97
753.497	358.11
753.823	360.66
754.148	421.95
754.473	307.04
754.799	314.7
755.124	360.66
755.449	386.2
755.774	360.66
756.1	427.05
756.425	342.79
756.75	401.52
757.075	378.54
757.4	457.69
757.724	444.93
758.049	373.43
758.374	452.59
758.699	386.2
759.024	404.07
759.348	501.1
759.673	424.5
759.997	421.95
760.322	439.82
760.646	378.54
760.971	314.7
761.295	419.39
761.619	432.16
761.944	437.27
762.268	442.37
762.592	404.07
762.916	427.05
763.24	467.91
763.564	450.03
763.888	483.23
764.212	516.42
764.536	490.89
764.86	465.35
765.184	467.91
765.508	570.04
765.831	511.31
766.155	707.92
766.478	480.67
766.802	511.31
767.126	618.56
767.449	626.22
767.772	723.24
768.096	702.82
768.419	769.21
768.742	868.79
769.066	942.83
769.389	1103.7
769.712	1302.86
770.035	1494.36
770.358	1489.26
770.681	1652.67
771.004	1959.08
771.327	2278.25
771.65	2464.65
771.972	2824.67
772.295	2993.2
772.618	3090.23
772.941	3348.12
773.263	3531.96
773.586	3580.47
773.908	3414.5
774.231	3345.56
774.553	3166.83
774.875	3100.44
775.198	3085.12
775.52	3077.46
775.842	2834.89
776.164	2510.61
776.487	2237.4
776.809	1897.8
777.131	1719.06
777.453	1476.49
777.775	1440.74
778.096	1162.43
778.418	1078.16
778.74	958.16
779.062	970.92
779.384	1024.54
779.705	965.82
780.027	1164.98
780.348	1180.3
780.67	1443.3
780.991	1642.46
781.313	2114.84
781.634	2592.32
781.955	3141.29
782.277	3623.88
782.598	4208.61
782.919	4558.42
783.24	5184
783.561	5444.44
783.882	5934.69
784.203	6647.08
784.524	7658.22
784.845	8115.27
785.166	8271.03
785.487	8408.91
785.807	8401.25
786.128	7911
786.449	7553.53
786.769	7568.85
787.09	7203.72
787.41	7298.19
787.731	7124.56
788.051	6430.04
788.372	5840.21
788.692	5145.7
789.012	4474.16
789.332	3662.18
789.653	3202.57
789.973	2651.04
790.293	2227.18
790.613	1790.56
790.933	1471.38
791.253	1175.19
791.573	924.96
791.893	876.45
792.212	820.27
792.532	856.02
792.852	912.19
793.171	1093.48
793.491	1445.85
793.811	1795.66
794.13	2150.58
794.45	2883.4
794.769	3470.68
795.088	4397.56
795.408	5015.47
795.727	5730.42
796.046	6238.54
796.365	7221.59
796.684	8038.67
797.004	8148.47
797.323	8557.01
797.642	9105.98
797.96	9118.75
798.279	8970.66
798.598	8850.65
798.917	8207.2
799.236	6884.55
799.554	6026.61
799.873	5799.36
800.192	5424.01
800.51	4749.92
800.829	4308.19
801.147	3838.37
801.466	3171.93
801.784	2648.49
802.102	2096.96
802.421	1573.52
802.739	1241.58
803.057	1042.42
803.375	810.06
803.693	779.42
804.011	758.99
804.329	771.76
804.647	825.38
804.965	1014.33
805.283	1305.41
805.601	1678.21
805.918	1900.35
806.236	2145.48
806.554	2479.97
806.871	2819.57
807.189	3312.37
807.507	4037.53
807.824	4680.98
808.141	5051.22
808.459	5574.66
808.776	5809.57
809.093	5707.44
809.411	5595.09
809.728	5429.12
810.045	4800.99
810.362	4627.36
810.679	4663.11
810.996	4351.59
811.313	4029.87
811.63	3695.38
811.947	3189.81
812.264	2768.5
812.58	2633.17
812.897	2380.39
813.214	2262.93
813.53	1856.94
813.847	1565.86
814.163	1236.47
814.48	1019.44
814.796	858.57
815.113	710.48
815.429	641.54
815.745	590.47
816.061	562.38
816.378	636.43
816.694	644.09
817.01	730.9
817.326	935.17
817.642	1116.46
817.958	1239.03
818.274	1274.77
818.59	1420.32
818.905	1461.17
819.221	1734.38
819.537	1923.33
819.852	2104.62
820.168	2204.2
820.484	2127.6
820.799	1992.27
821.115	2010.15
821.43	1923.33
821.745	2165.9
822.061	2071.43
822.376	1994.83
822.691	1987.17
823.006	1795.66
823.322	1581.18
823.637	1527.56
823.952	1346.27
824.267	1190.51
824.582	1001.56
824.897	924.96
825.211	838.15
825.526	705.37
825.841	593.02
826.156	513.87
826.47	511.31
826.785	493.44
827.1	473.01
827.414	452.59
827.729	442.37
828.043	462.8
828.357	483.23
828.672	442.37
828.986	462.8
829.3	534.29
829.614	621.11
829.929	605.79
830.243	621.11
830.557	799.85
830.871	840.7
831.185	848.36
831.499	804.95
831.812	899.43
832.126	815.17
832.44	871.34
832.754	835.59
833.067	909.64
833.381	901.98
833.695	889.21
834.008	779.42
834.322	725.8
834.635	687.5
834.948	646.64
835.262	585.36
835.575	513.87
835.888	473.01
836.201	483.23
836.515	427.05
836.828	503.65
837.141	478.12
837.454	427.05
837.767	534.29
838.08	404.07
838.392	406.63
838.705	398.97
839.018	414.29
839.331	355.56
839.643	393.86
839.956	383.65
840.269	442.37
840.581	404.07
840.894	419.39
841.206	490.89
841.519	582.81
841.831	452.59
842.143	450.03
842.455	432.16
842.768	493.44
843.08	493.44
843.392	498.55
843.704	442.37
844.016	518.97
844.328	503.65
844.64	534.29
844.952	531.74
845.263	452.59
845.575	480.67
845.887	411.73
846.199	473.01
846.51	508.76
846.822	401.52
847.133	416.84
847.445	381.09
847.756	396.41
848.068	470.46
848.379	406.63
848.69	439.82
849.002	432.16
849.313	429.61
849.624	432.16
849.935	368.32
850.246	355.56
850.557	401.52
850.868	355.56
851.179	386.2
851.49	350.45
851.801	342.79
852.112	432.16
852.422	368.32
852.733	388.75
853.044	401.52
853.354	342.79
853.665	350.45
853.975	416.84
854.286	396.41
854.596	447.48
854.906	393.86
855.217	365.77
855.527	353
855.837	450.03
856.147	424.5
856.458	358.11
856.768	388.75
857.078	393.86
857.388	381.09
857.698	363.22
858.007	360.66
858.317	350.45
858.627	419.39
858.937	457.69
859.246	409.18
859.556	386.2
859.866	340.24
860.175	324.92
860.485	368.32
860.794	335.13
861.104	419.39
861.413	365.77
861.722	429.61
862.032	401.52
862.341	429.61
862.65	335.13
862.959	388.75
863.268	467.91
863.577	401.52
863.886	391.31
864.195	490.89
864.504	437.27
864.813	342.79
865.122	442.37
865.43	386.2
865.739	375.98
866.048	388.75
866.356	393.86
866.665	375.98
866.973	373.43
867.282	383.65
867.59	416.84
867.899	383.65
868.207	393.86
868.515	424.5
868.823	388.75
869.132	291.72
869.44	424.5
869.748	429.61
870.056	383.65
870.364	437.27
870.672	419.39
870.98	444.93
871.288	355.56
871.595	404.07
871.903	439.82
872.211	432.16
872.518	398.97
872.826	419.39
873.134	409.18
873.441	391.31
873.749	396.41
874.056	421.95
874.363	432.16
874.671	391.31
874.978	370.88
875.285	419.39
875.592	386.2
875.9	350.45
876.207	360.66
876.514	350.45
876.821	421.95
877.128	378.54
877.435	411.73
877.741	370.88
878.048	411.73
878.355	365.77
878.662	396.41
878.968	416.84
879.275	304.49
879.582	278.96
879.888	368.32
880.195	409.18
880.501	363.22
880.807	347.9
881.114	381.09
881.42	365.77
881.726	391.31
882.032	378.54
882.339	355.56
882.645	391.31
882.951	388.75
883.257	365.77
883.563	370.88
883.869	378.54
884.174	391.31
884.48	309.6
884.786	409.18
885.092	355.56
885.397	345.34
885.703	416.84
886.009	330.02
886.314	355.56
886.62	414.29
886.925	373.43
887.231	373.43
887.536	350.45
887.841	358.11
888.146	429.61
888.452	460.25
888.757	439.82
889.062	432.16
889.367	340.24
889.672	401.52
889.977	421.95
890.282	452.59
890.587	421.95
890.892	386.2
891.196	319.81
891.501	370.88
891.806	345.34
892.11	375.98
892.415	434.71
892.72	427.05
893.024	340.24
893.328	439.82
893.633	434.71
893.937	378.54
894.242	383.65
894.546	406.63
894.85	365.77
895.154	439.82
895.458	411.73
895.762	378.54
896.066	429.61
896.37	439.82
896.674	421.95
896.978	381.09
897.282	401.52
897.586	375.98
897.89	360.66
898.193	330.02
898.497	411.73
898.801	467.91
899.104	383.65
899.408	340.24
899.711	396.41
900.014	375.98
900.318	368.32
900.621	378.54
900.924	386.2
901.228	388.75
901.531	434.71
901.834	416.84
902.137	375.98
902.44	383.65
902.743	330.02
903.046	378.54
903.349	388.75
903.652	409.18
903.955	378.54
904.257	478.12
904.56	421.95
904.863	370.88
905.165	365.77
905.468	447.48
905.77	393.86
906.073	360.66
906.375	381.09
906.678	388.75
906.98	409.18
907.282	393.86
907.584	381.09
907.887	473.01
908.189	375.98
908.491	360.66
908.793	424.5
909.095	381.09
909.397	447.48
909.699	383.65
910.001	345.34
910.302	398.97
910.604	432.16
910.906	383.65
911.208	388.75
911.509	358.11
911.811	360.66
912.112	365.77
912.414	393.86
912.715	365.77
913.017	386.2
913.318	335.13
913.619	429.61
913.92	404.07
914.222	419.39
914.523	368.32
914.824	358.11
915.125	370.88
915.426	424.5
915.727	396.41
916.028	375.98
916.329	350.45
916.63	406.63
916.93	383.65
917.231	414.29
917.532	419.39
917.832	391.31
918.133	429.61
918.434	363.22
918.734	353
919.034	427.05
919.335	386.2
919.635	442.37
919.935	439.82
920.236	353
920.536	409.18
920.836	383.65
921.136	442.37
921.436	529.19
921.736	378.54
922.036	355.56
922.336	353
922.636	355.56
922.936	383.65
923.236	370.88
923.535	388.75
923.835	404.07
924.135	342.79
924.434	332.58
924.734	365.77
925.033	324.92
925.333	383.65
925.632	322.36
925.932	439.82
926.231	383.65
926.53	424.5
926.83	398.97
927.129	388.75
927.428	386.2
927.727	434.71
928.026	373.43
928.325	427.05
928.624	345.34
928.923	419.39
929.222	444.93
929.52	419.39
929.819	383.65
930.118	322.36
930.417	350.45
930.715	342.79
931.014	416.84
931.312	378.54
931.611	368.32
931.909	360.66
932.207	398.97
932.506	373.43
932.804	411.73
933.102	360.66
933.401	391.31
933.699	355.56
933.997	317.26
934.295	304.49
934.593	416.84
934.891	411.73
935.189	429.61
935.487	406.63
935.784	419.39
936.082	475.57
936.38	375.98
936.677	442.37
936.975	368.32
937.273	330.02
937.57	347.9
937.868	439.82
938.165	375.98
938.463	427.05
938.76	401.52
939.057	447.48
939.354	452.59
939.652	358.11
939.949	363.22
940.246	386.2
940.543	388.75
940.84	386.2
941.137	391.31
941.434	368.32
941.731	322.36
942.028	340.24
942.324	388.75
942.621	365.77
942.918	381.09
943.214	307.04
943.511	375.98
943.807	365.77
944.104	368.32
944.4	381.09
944.697	335.13
944.993	373.43
945.29	378.54
945.586	370.88
945.882	365.77
946.178	378.54
946.474	368.32
946.77	355.56
947.066	370.88
947.362	409.18
947.658	427.05
947.954	350.45
948.25	317.26
948.546	432.16
948.842	442.37
949.137	378.54
949.433	381.09
949.729	370.88
950.024	360.66
950.32	447.48
950.615	340.24
950.91	365.77
951.206	381.09
951.501	365.77
951.796	337.68
952.092	335.13
952.387	419.39
952.682	421.95
952.977	419.39
953.272	340.24
953.567	439.82
953.862	411.73
954.157	391.31
954.452	370.88
954.747	381.09
955.041	345.34
955.336	391.31
955.631	401.52
955.925	432.16
956.22	421.95
956.514	347.9
956.809	386.2
957.103	381.09
957.398	365.77
957.692	427.05
957.986	406.63
958.281	342.79
958.575	386.2
958.869	393.86
959.163	398.97
959.457	383.65
959.751	378.54
960.045	388.75
960.339	429.61
960.633	442.37
960.927	388.75
961.221	391.31
961.514	396.41
961.808	350.45
962.102	350.45
962.395	365.77
962.689	319.81
962.982	378.54
963.276	345.34
963.569	442.37
963.862	434.71
964.156	411.73
964.449	406.63
964.742	327.47
965.035	391.31
965.328	429.61
965.622	365.77
965.915	378.54
966.208	365.77
966.5	370.88
966.793	396.41
967.086	347.9
967.379	421.95
967.672	450.03
967.964	416.84
968.257	398.97
968.55	473.01
968.842	391.31
969.135	350.45
969.427	388.75
969.72	442.37
970.012	391.31
970.304	498.55
970.597	396.41
970.889	324.92
971.181	355.56
971.473	391.31
971.765	404.07
972.057	404.07
972.349	378.54
972.641	342.79
972.933	396.41
973.225	332.58
973.517	424.5
973.809	442.37
974.1	404.07
974.392	353
974.684	368.32
974.975	368.32
975.267	416.84
975.558	388.75
975.85	429.61
976.141	381.09
976.432	370.88
976.724	342.79
977.015	365.77
977.306	396.41
977.597	391.31
977.888	386.2
978.179	429.61
978.47	450.03
978.761	398.97
979.052	411.73
979.343	327.47
979.634	345.34
979.925	391.31
980.215	416.84
980.506	401.52
980.797	391.31
981.087	388.75
981.378	345.34
981.668	398.97
981.959	330.02
982.249	381.09
982.54	345.34
982.83	450.03
983.12	386.2
983.41	375.98
983.701	365.77
983.991	332.58
984.281	401.52
984.571	383.65
984.861	388.75
985.151	383.65
985.441	409.18
985.73	421.95
986.02	342.79
986.31	370.88
986.6	342.79
986.889	324.92
987.179	360.66
987.469	353
987.758	406.63
988.048	378.54
988.337	429.61
988.626	427.05
988.916	373.43
989.205	388.75
989.494	386.2
989.783	381.09
990.073	322.36
990.362	358.11
990.651	335.13
990.94	439.82
991.229	447.48
991.518	414.29
991.806	365.77
992.095	419.39
992.384	381.09
992.673	358.11
992.961	424.5
993.25	398.97
993.539	350.45
993.827	360.66
994.116	370.88
994.404	368.32
994.692	355.56
994.981	381.09
995.269	406.63
995.557	411.73
995.846	381.09
996.134	373.43
996.422	396.41
996.71	353
996.998	427.05
997.286	365.77
997.574	393.86
997.862	419.39
998.15	383.65
998.437	373.43
998.725	414.29
999.013	353
999.3	304.49
999.588	317.26
999.876	378.54
1000.163	414.29
1000.45	398.97
1000.738	398.97
1001.025	406.63
1001.313	411.73
1001.6	363.22
1001.887	365.77
1002.174	432.16
1002.461	368.32
1002.748	335.13
1003.036	373.43
1003.322	409.18
1003.609	421.95
1003.896	391.31
1004.183	414.29
1004.47	337.68
1004.757	411.73
1005.043	427.05
1005.33	360.66
1005.617	368.32
1005.903	375.98
1006.19	314.7
1006.476	368.32
1006.763	421.95
1007.049	340.24
1007.335	358.11
1007.622	409.18
1007.908	345.34
1008.194	319.81
1008.48	360.66
1008.766	304.49
1009.053	330.02
1009.339	393.86
1009.625	381.09
1009.91	406.63
1010.196	393.86
1010.482	314.7
1010.768	388.75
1011.054	462.8
1011.339	347.9
1011.625	409.18
1011.911	439.82
1012.196	381.09
1012.482	416.84
1012.767	421.95
1013.052	396.41
1013.338	375.98
1013.623	432.16
1013.908	490.89
1014.194	457.69
1014.479	388.75
1014.764	388.75
1015.049	432.16
1015.334	370.88
1015.619	393.86
1015.904	355.56
1016.189	396.41
1016.474	350.45
1016.758	355.56
1017.043	373.43
1017.328	383.65
1017.613	322.36
1017.897	391.31
1018.182	419.39
1018.466	317.26
1018.751	393.86
1019.035	450.03
1019.32	375.98
1019.604	350.45
1019.888	370.88
1020.172	370.88
1020.457	370.88
