Data from 2025-12-03_xpw_interference_micrometer_634_FLMS141361__97__147.txt Node

Date: Wed Dec 03 15:48:46 MST 2025
User: james
Spectrometer: FLMS14136
Trigger mode: 0
Integration Time (sec): 1.000000E-1
Scans to average: 1
Electric dark correction enabled: true
Nonlinearity correction enabled: false
Boxcar width: 0
XAxis mode: Wavelengths
Number of Pixels in Spectrum: 2048
>>>>>Begin Spectral Data<<<<<
339.315	-51.71
339.697	-51.71
340.079	-51.71
340.461	-100.22
340.843	-138.52
341.225	-87.45
341.607	-87.45
341.989	-8.3
342.371	-49.15
342.752	-64.47
343.134	-54.26
343.516	-33.83
343.897	-3.19
344.279	-3.19
344.661	24.9
345.042	-0.64
345.423	9.58
345.805	30
346.186	50.43
346.567	129.58
346.949	147.46
347.33	162.78
347.711	183.2
348.092	229.17
348.473	290.45
348.854	257.25
349.235	280.23
349.616	305.77
349.997	303.21
350.378	262.36
350.758	262.36
351.139	328.75
351.52	361.94
351.9	341.51
352.281	397.69
352.661	377.26
353.042	390.03
353.422	323.64
353.803	344.07
354.183	382.37
354.563	315.98
354.943	374.71
355.324	402.8
355.704	346.62
356.084	395.14
356.464	407.9
356.844	361.94
357.224	369.6
357.603	418.12
357.983	413.01
358.363	453.86
358.743	349.17
359.122	395.14
359.502	361.94
359.882	349.17
360.261	369.6
360.641	328.75
361.02	341.51
361.399	395.14
361.779	395.14
362.158	344.07
362.537	333.85
362.916	374.71
363.296	367.05
363.675	428.33
364.054	346.62
364.433	305.77
364.812	372.15
365.19	351.73
365.569	341.51
365.948	295.55
366.327	356.83
366.705	354.28
367.084	379.81
367.463	369.6
367.841	346.62
368.22	367.05
368.598	341.51
368.977	323.64
369.355	364.49
369.733	392.58
370.111	382.37
370.49	369.6
370.868	315.98
371.246	295.55
371.624	333.85
372.002	323.64
372.38	374.71
372.758	377.26
373.136	402.8
373.513	392.58
373.891	361.94
374.269	453.86
374.646	382.37
375.024	390.03
375.402	359.39
375.779	308.32
376.157	344.07
376.534	410.46
376.911	405.35
377.289	466.63
377.666	415.56
378.043	367.05
378.42	430.88
378.797	402.8
379.175	433.44
379.552	341.51
379.929	382.37
380.305	364.49
380.682	415.56
381.059	313.43
381.436	369.6
381.813	308.32
382.189	331.3
382.566	356.83
382.943	377.26
383.319	364.49
383.696	405.35
384.072	425.78
384.448	361.94
384.825	367.05
385.201	453.86
385.577	367.05
385.953	361.94
386.329	384.92
386.706	259.81
387.082	390.03
387.458	331.3
387.834	374.71
388.209	448.76
388.585	338.96
388.961	318.53
389.337	369.6
389.713	382.37
390.088	402.8
390.464	390.03
390.839	420.67
391.215	430.88
391.59	349.17
391.966	354.28
392.341	384.92
392.716	379.81
393.092	364.49
393.467	349.17
393.842	392.58
394.217	402.8
394.592	349.17
394.967	382.37
395.342	354.28
395.717	338.96
396.092	400.24
396.467	400.24
396.841	415.56
397.216	402.8
397.591	400.24
397.965	435.99
398.34	425.78
398.714	326.19
399.089	354.28
399.463	395.14
399.838	407.9
400.212	402.8
400.586	372.15
400.961	469.18
401.335	438.54
401.709	372.15
402.083	384.92
402.457	410.46
402.831	428.33
403.205	367.05
403.579	400.24
403.953	397.69
404.326	425.78
404.7	372.15
405.074	351.73
405.447	354.28
405.821	428.33
406.195	407.9
406.568	410.46
406.942	369.6
407.315	387.48
407.688	397.69
408.062	397.69
408.435	420.67
408.808	390.03
409.181	367.05
409.554	433.44
409.927	346.62
410.3	425.78
410.673	451.31
411.046	382.37
411.419	384.92
411.792	407.9
412.165	326.19
412.537	395.14
412.91	344.07
413.283	392.58
413.655	377.26
414.028	331.3
414.4	402.8
414.773	392.58
415.145	349.17
415.517	336.41
415.889	379.81
416.262	471.74
416.634	420.67
417.006	400.24
417.378	458.97
417.75	446.2
418.122	410.46
418.494	374.71
418.866	405.35
419.238	351.73
419.609	438.54
419.981	420.67
420.353	423.22
420.725	377.26
421.096	395.14
421.468	392.58
421.839	354.28
422.211	430.88
422.582	346.62
422.953	351.73
423.325	344.07
423.696	382.37
424.067	405.35
424.438	418.12
424.809	390.03
425.18	397.69
425.551	430.88
425.922	382.37
426.293	428.33
426.664	354.28
427.035	469.18
427.406	384.92
427.776	415.56
428.147	423.22
428.518	428.33
428.888	418.12
429.259	372.15
429.629	448.76
429.999	395.14
430.37	382.37
430.74	372.15
431.11	451.31
431.481	413.01
431.851	413.01
432.221	359.39
432.591	415.56
432.961	395.14
433.331	384.92
433.701	420.67
434.071	476.84
434.441	387.48
434.81	423.22
435.18	372.15
435.55	415.56
435.919	387.48
436.289	372.15
436.658	466.63
437.028	374.71
437.397	356.83
437.767	448.76
438.136	415.56
438.505	418.12
438.875	402.8
439.244	423.22
439.613	407.9
439.982	367.05
440.351	367.05
440.72	390.03
441.089	441.1
441.458	392.58
441.827	433.44
442.196	407.9
442.564	476.84
442.933	395.14
443.302	390.03
443.67	395.14
444.039	402.8
444.407	326.19
444.776	428.33
445.144	435.99
445.513	361.94
445.881	425.78
446.249	428.33
446.617	397.69
446.986	423.22
447.354	400.24
447.722	377.26
448.09	413.01
448.458	402.8
448.826	430.88
449.194	379.81
449.561	310.87
449.929	384.92
450.297	420.67
450.665	390.03
451.032	481.95
451.4	390.03
451.767	377.26
452.135	369.6
452.502	359.39
452.87	405.35
453.237	420.67
453.604	351.73
453.971	395.14
454.339	395.14
454.706	443.65
455.073	400.24
455.44	430.88
455.807	397.69
456.174	387.48
456.541	497.27
456.908	349.17
457.274	354.28
457.641	387.48
458.008	402.8
458.374	438.54
458.741	405.35
459.108	402.8
459.474	448.76
459.841	451.31
460.207	407.9
460.573	479.4
460.94	446.2
461.306	407.9
461.672	425.78
462.038	418.12
462.404	382.37
462.771	428.33
463.137	474.29
463.503	474.29
463.868	443.65
464.234	410.46
464.6	402.8
464.966	400.24
465.332	425.78
465.697	384.92
466.063	487.06
466.429	405.35
466.794	466.63
467.16	438.54
467.525	438.54
467.89	321.09
468.256	413.01
468.621	438.54
468.986	423.22
469.351	387.48
469.717	415.56
470.082	415.56
470.447	464.08
470.812	384.92
471.177	443.65
471.542	407.9
471.906	423.22
472.271	466.63
472.636	448.76
473.001	374.71
473.365	484.5
473.73	420.67
474.094	433.44
474.459	448.76
474.823	418.12
475.188	446.2
475.552	405.35
475.917	441.1
476.281	433.44
476.645	499.82
477.009	397.69
477.373	494.72
477.737	374.71
478.101	410.46
478.465	443.65
478.829	397.69
479.193	420.67
479.557	351.73
479.921	451.31
480.284	400.24
480.648	469.18
481.012	461.52
481.375	359.39
481.739	441.1
482.102	390.03
482.466	392.58
482.829	461.52
483.193	410.46
483.556	446.2
483.919	400.24
484.282	481.95
484.645	384.92
485.009	400.24
485.372	469.18
485.735	476.84
486.098	400.24
486.46	448.76
486.823	446.2
487.186	469.18
487.549	418.12
487.912	471.74
488.274	397.69
488.637	433.44
488.999	346.62
489.362	397.69
489.724	369.6
490.087	377.26
490.449	415.56
490.811	397.69
491.174	438.54
491.536	390.03
491.898	377.26
492.26	397.69
492.622	407.9
492.984	438.54
493.346	328.75
493.708	407.9
494.07	387.48
494.432	458.97
494.794	418.12
495.155	400.24
495.517	458.97
495.879	515.14
496.24	469.18
496.602	453.86
496.963	481.95
497.325	377.26
497.686	364.49
498.048	346.62
498.409	384.92
498.77	349.17
499.131	377.26
499.492	372.15
499.854	418.12
500.215	438.54
500.576	410.46
500.937	367.05
501.298	410.46
501.658	438.54
502.019	550.89
502.38	441.1
502.741	397.69
503.101	430.88
503.462	407.9
503.823	402.8
504.183	400.24
504.543	423.22
504.904	344.07
505.264	397.69
505.625	400.24
505.985	420.67
506.345	333.85
506.705	433.44
507.065	418.12
507.426	420.67
507.786	390.03
508.146	418.12
508.505	415.56
508.865	418.12
509.225	359.39
509.585	471.74
509.945	489.61
510.304	407.9
510.664	428.33
511.024	430.88
511.383	400.24
511.743	443.65
512.102	397.69
512.462	464.08
512.821	441.1
513.18	379.81
513.539	374.71
513.899	433.44
514.258	374.71
514.617	435.99
514.976	359.39
515.335	402.8
515.694	435.99
516.053	387.48
516.412	372.15
516.771	420.67
517.129	410.46
517.488	392.58
517.847	407.9
518.205	420.67
518.564	502.38
518.922	471.74
519.281	390.03
519.639	402.8
519.998	359.39
520.356	415.56
520.714	405.35
521.073	441.1
521.431	379.81
521.789	435.99
522.147	443.65
522.505	458.97
522.863	425.78
523.221	390.03
523.579	530.46
523.937	410.46
524.295	448.76
524.652	392.58
525.01	410.46
525.368	356.83
525.725	379.81
526.083	418.12
526.44	405.35
526.798	400.24
527.155	469.18
527.513	456.42
527.87	428.33
528.227	382.37
528.584	420.67
528.942	356.83
529.299	433.44
529.656	458.97
530.013	435.99
530.37	420.67
530.727	407.9
531.083	476.84
531.44	387.48
531.797	433.44
532.154	481.95
532.511	413.01
532.867	377.26
533.224	418.12
533.58	456.42
533.937	410.46
534.293	415.56
534.65	387.48
535.006	407.9
535.362	479.4
535.718	410.46
536.075	423.22
536.431	413.01
536.787	407.9
537.143	458.97
537.499	420.67
537.855	384.92
538.211	435.99
538.567	418.12
538.923	438.54
539.278	390.03
539.634	402.8
539.99	392.58
540.345	392.58
540.701	443.65
541.056	502.38
541.412	390.03
541.767	390.03
542.123	354.28
542.478	384.92
542.833	390.03
543.188	374.71
543.544	379.81
543.899	413.01
544.254	361.94
544.609	390.03
544.964	392.58
545.319	425.78
545.674	446.2
546.029	395.14
546.383	420.67
546.738	425.78
547.093	423.22
547.447	443.65
547.802	423.22
548.157	466.63
548.511	458.97
548.866	435.99
549.22	446.2
549.574	405.35
549.929	351.73
550.283	402.8
550.637	458.97
550.991	479.4
551.345	402.8
551.699	476.84
552.053	441.1
552.407	448.76
552.761	387.48
553.115	390.03
553.469	433.44
553.823	481.95
554.176	413.01
554.53	428.33
554.884	369.6
555.237	640.26
555.591	441.1
555.944	430.88
556.298	402.8
556.651	420.67
557.005	407.9
557.358	425.78
557.711	461.52
558.064	430.88
558.417	374.71
558.771	474.29
559.124	428.33
559.477	354.28
559.83	379.81
560.182	382.37
560.535	538.12
560.888	479.4
561.241	382.37
561.594	400.24
561.946	415.56
562.299	423.22
562.651	346.62
563.004	400.24
563.356	441.1
563.709	438.54
564.061	430.88
564.413	530.46
564.766	451.31
565.118	430.88
565.47	387.48
565.822	441.1
566.174	387.48
566.526	415.56
566.878	400.24
567.23	387.48
567.582	364.49
567.934	372.15
568.286	336.41
568.638	420.67
568.989	469.18
569.341	443.65
569.693	395.14
570.044	387.48
570.396	420.67
570.747	423.22
571.098	384.92
571.45	428.33
571.801	418.12
572.152	410.46
572.504	369.6
572.855	336.41
573.206	397.69
573.557	377.26
573.908	430.88
574.259	425.78
574.61	387.48
574.961	428.33
575.311	469.18
575.662	466.63
576.013	407.9
576.364	413.01
576.714	413.01
577.065	351.73
577.415	402.8
577.766	356.83
578.116	333.85
578.467	390.03
578.817	333.85
579.167	400.24
579.518	413.01
579.868	392.58
580.218	379.81
580.568	428.33
580.918	400.24
581.268	430.88
581.618	400.24
581.968	405.35
582.318	397.69
582.668	359.39
583.017	435.99
583.367	476.84
583.717	438.54
584.066	413.01
584.416	400.24
584.765	331.3
585.115	346.62
585.464	382.37
585.814	441.1
586.163	374.71
586.512	344.07
586.862	351.73
587.211	415.56
587.56	338.96
587.909	377.26
588.258	402.8
588.607	374.71
588.956	458.97
589.305	492.16
589.654	413.01
590.002	430.88
590.351	448.76
590.7	397.69
591.048	405.35
591.397	400.24
591.746	379.81
592.094	402.8
592.443	474.29
592.791	310.87
593.139	395.14
593.488	395.14
593.836	435.99
594.184	451.31
594.532	487.06
594.88	499.82
595.228	464.08
595.576	433.44
595.924	410.46
596.272	433.44
596.62	346.62
596.968	374.71
597.316	390.03
597.664	379.81
598.011	318.53
598.359	464.08
598.706	361.94
599.054	379.81
599.402	369.6
599.749	400.24
600.096	466.63
600.444	456.42
600.791	430.88
601.138	471.74
601.485	471.74
601.833	402.8
602.18	407.9
602.527	354.28
602.874	405.35
603.221	430.88
603.568	410.46
603.914	397.69
604.261	341.51
604.608	423.22
604.955	415.56
605.301	420.67
605.648	402.8
605.995	415.56
606.341	466.63
606.688	377.26
607.034	415.56
607.38	415.56
607.727	402.8
608.073	392.58
608.419	387.48
608.765	402.8
609.112	361.94
609.458	456.42
609.804	390.03
610.15	351.73
610.496	369.6
610.842	400.24
611.187	433.44
611.533	395.14
611.879	395.14
612.225	425.78
612.57	415.56
612.916	425.78
613.261	397.69
613.607	356.83
613.952	484.5
614.298	372.15
614.643	469.18
614.989	397.69
615.334	402.8
615.679	461.52
616.024	425.78
616.369	367.05
616.714	336.41
617.059	456.42
617.404	364.49
617.749	387.48
618.094	402.8
618.439	458.97
618.784	407.9
619.129	361.94
619.473	361.94
619.818	400.24
620.163	387.48
620.507	326.19
620.852	364.49
621.196	446.2
621.54	379.81
621.885	433.44
622.229	428.33
622.573	423.22
622.918	407.9
623.262	379.81
623.606	384.92
623.95	443.65
624.294	430.88
624.638	377.26
624.982	395.14
625.326	418.12
625.67	410.46
626.013	425.78
626.357	346.62
626.701	356.83
627.044	402.8
627.388	430.88
627.731	392.58
628.075	382.37
628.418	443.65
628.762	497.27
629.105	390.03
629.448	359.39
629.792	354.28
630.135	405.35
630.478	382.37
630.821	410.46
631.164	338.96
631.507	484.5
631.85	387.48
632.193	395.14
632.536	369.6
632.879	369.6
633.221	390.03
633.564	469.18
633.907	356.83
634.249	400.24
634.592	359.39
634.935	390.03
635.277	402.8
635.619	438.54
635.962	374.71
636.304	359.39
636.646	405.35
636.989	415.56
637.331	407.9
637.673	433.44
638.015	446.2
638.357	443.65
638.699	474.29
639.041	458.97
639.383	369.6
639.725	382.37
640.067	415.56
640.408	379.81
640.75	372.15
641.092	379.81
641.433	481.95
641.775	469.18
642.116	359.39
642.458	410.46
642.799	405.35
643.141	441.1
643.482	351.73
643.823	374.71
644.164	446.2
644.506	418.12
644.847	430.88
645.188	390.03
645.529	367.05
645.87	392.58
646.211	407.9
646.552	405.35
646.893	446.2
647.233	397.69
647.574	415.56
647.915	377.26
648.255	438.54
648.596	372.15
648.937	407.9
649.277	372.15
649.618	377.26
649.958	356.83
650.298	405.35
650.639	418.12
650.979	415.56
651.319	418.12
651.659	402.8
651.999	382.37
652.339	392.58
652.679	402.8
653.019	356.83
653.359	405.35
653.699	451.31
654.039	415.56
654.379	400.24
654.719	377.26
655.058	346.62
655.398	405.35
655.737	428.33
656.077	441.1
656.416	418.12
656.756	382.37
657.095	402.8
657.435	377.26
657.774	359.39
658.113	418.12
658.452	384.92
658.792	354.28
659.131	382.37
659.47	369.6
659.809	443.65
660.148	418.12
660.487	413.01
660.826	379.81
661.164	384.92
661.503	395.14
661.842	392.58
662.181	451.31
662.519	425.78
662.858	443.65
663.196	377.26
663.535	369.6
663.873	384.92
664.212	423.22
664.55	364.49
664.888	377.26
665.226	323.64
665.565	402.8
665.903	599.41
666.241	443.65
666.579	433.44
666.917	372.15
667.255	430.88
667.593	453.86
667.931	435.99
668.268	476.84
668.606	415.56
668.944	471.74
669.282	395.14
669.619	474.29
669.957	469.18
670.294	377.26
670.632	420.67
670.969	382.37
671.307	390.03
671.644	382.37
671.981	453.86
672.318	415.56
672.656	410.46
672.993	400.24
673.33	384.92
673.667	410.46
674.004	367.05
674.341	420.67
674.678	395.14
675.015	428.33
675.351	492.16
675.688	402.8
676.025	369.6
676.362	372.15
676.698	387.48
677.035	430.88
677.371	400.24
677.708	425.78
678.044	374.71
678.38	413.01
678.717	410.46
679.053	384.92
679.389	407.9
679.725	351.73
680.062	466.63
680.398	456.42
680.734	377.26
681.07	448.76
681.406	420.67
681.742	423.22
682.077	402.8
682.413	336.41
682.749	428.33
683.085	379.81
683.42	379.81
683.756	384.92
684.091	351.73
684.427	438.54
684.762	435.99
685.098	405.35
685.433	372.15
685.768	323.64
686.104	351.73
686.439	377.26
686.774	382.37
687.109	425.78
687.444	407.9
687.779	446.2
688.114	402.8
688.449	405.35
688.784	453.86
689.119	402.8
689.454	413.01
689.789	390.03
690.123	392.58
690.458	323.64
690.792	410.46
691.127	446.2
691.461	384.92
691.796	359.39
692.13	397.69
692.465	400.24
692.799	310.87
693.133	315.98
693.467	400.24
693.802	392.58
694.136	451.31
694.47	410.46
694.804	418.12
695.138	461.52
695.472	349.17
695.806	405.35
696.139	390.03
696.473	397.69
696.807	369.6
697.141	374.71
697.474	336.41
697.808	400.24
698.141	367.05
698.475	359.39
698.808	367.05
699.142	377.26
699.475	374.71
699.808	413.01
700.142	425.78
700.475	397.69
700.808	377.26
701.141	407.9
701.474	430.88
701.807	377.26
702.14	392.58
702.473	418.12
702.806	397.69
703.139	415.56
703.472	499.82
703.804	451.31
704.137	433.44
704.47	464.08
704.802	377.26
705.135	407.9
705.467	374.71
705.8	390.03
706.132	379.81
706.464	377.26
706.797	331.3
707.129	433.44
707.461	476.84
707.793	405.35
708.125	423.22
708.457	395.14
708.789	430.88
709.121	479.4
709.453	382.37
709.785	328.75
710.117	397.69
710.449	390.03
710.781	367.05
711.112	502.38
711.444	430.88
711.775	392.58
712.107	451.31
712.438	423.22
712.77	400.24
713.101	420.67
713.433	390.03
713.764	405.35
714.095	456.42
714.426	395.14
714.757	415.56
715.089	461.52
715.42	438.54
715.751	397.69
716.082	402.8
716.412	402.8
716.743	328.75
717.074	387.48
717.405	336.41
717.736	425.78
718.066	390.03
718.397	390.03
718.727	346.62
719.058	464.08
719.388	387.48
719.719	425.78
720.049	415.56
720.38	418.12
720.71	405.35
721.04	372.15
721.37	423.22
721.7	382.37
722.031	458.97
722.361	423.22
722.691	435.99
723.021	435.99
723.35	415.56
723.68	392.58
724.01	441.1
724.34	372.15
724.67	361.94
724.999	402.8
725.329	390.03
725.658	420.67
725.988	395.14
726.317	476.84
726.647	430.88
726.976	384.92
727.306	420.67
727.635	438.54
727.964	448.76
728.293	379.81
728.622	453.86
728.952	359.39
729.281	443.65
729.61	367.05
729.939	420.67
730.267	405.35
730.596	359.39
730.925	359.39
731.254	372.15
731.583	379.81
731.911	448.76
732.24	517.7
732.568	425.78
732.897	384.92
733.225	369.6
733.554	402.8
733.882	387.48
734.21	418.12
734.539	392.58
734.867	390.03
735.195	405.35
735.523	356.83
735.851	433.44
736.179	481.95
736.507	405.35
736.835	423.22
737.163	397.69
737.491	390.03
737.819	359.39
738.147	448.76
738.474	379.81
738.802	499.82
739.13	420.67
739.457	390.03
739.785	372.15
740.112	333.85
740.44	382.37
740.767	441.1
741.094	395.14
741.422	430.88
741.749	428.33
742.076	359.39
742.403	344.07
742.73	361.94
743.057	405.35
743.384	361.94
743.711	425.78
744.038	387.48
744.365	430.88
744.692	464.08
745.018	384.92
745.345	387.48
745.672	397.69
745.998	420.67
746.325	420.67
746.651	407.9
746.978	382.37
747.304	392.58
747.631	384.92
747.957	374.71
748.283	407.9
748.61	446.2
748.936	410.46
749.262	402.8
749.588	423.22
749.914	321.09
750.24	372.15
750.566	379.81
750.892	359.39
751.218	395.14
751.543	374.71
751.869	349.17
752.195	425.78
752.521	420.67
752.846	382.37
753.172	443.65
753.497	369.6
753.823	428.33
754.148	446.2
754.473	395.14
754.799	395.14
755.124	338.96
755.449	413.01
755.774	418.12
756.1	382.37
756.425	402.8
756.75	410.46
757.075	415.56
757.4	530.46
757.724	507.48
758.049	425.78
758.374	390.03
758.699	392.58
759.024	356.83
759.348	479.4
759.673	372.15
759.997	384.92
760.322	410.46
760.646	428.33
760.971	413.01
761.295	492.16
761.619	464.08
761.944	415.56
762.268	453.86
762.592	563.66
762.916	476.84
763.24	476.84
763.564	520.25
763.888	502.38
764.212	543.23
764.536	525.36
764.86	545.78
765.184	520.25
765.508	645.37
765.831	624.94
766.155	885.38
766.478	849.64
766.802	898.15
767.126	987.52
767.449	1237.75
767.772	1556.92
768.096	1585.01
768.419	1541.6
768.742	1373.08
769.066	1247.96
769.389	1150.94
769.712	926.24
770.035	724.52
770.358	737.29
770.681	900.7
771.004	1066.67
771.327	1219.88
771.65	1648.84
771.972	2172.29
772.295	2463.37
772.618	2744.24
772.941	2887.23
773.263	2866.81
773.586	2736.58
773.908	2657.43
774.231	2573.17
774.553	1950.14
774.875	1648.84
775.198	1301.58
775.52	1217.32
775.842	1286.26
776.164	1592.67
776.487	2100.79
776.809	2524.65
777.131	3198.74
777.453	3681.33
777.775	4192.01
778.096	4529.05
778.418	4398.83
778.74	4061.79
779.062	3648.14
779.384	3132.36
779.705	2759.56
780.027	2399.54
780.348	1893.97
780.67	1508.41
780.991	1475.21
781.313	1896.52
781.634	2562.95
781.955	3305.99
782.277	4314.57
782.598	5639.77
782.919	6377.7
783.24	6970.08
783.561	7031.36
783.882	6896.04
784.203	6558.99
784.524	5711.27
784.845	4500.97
785.166	3408.12
785.487	2555.29
785.807	1850.56
786.128	1447.13
786.449	1429.25
786.769	1710.12
787.09	2657.43
787.41	3893.26
787.731	5652.54
788.051	7317.34
788.372	8479.13
788.692	10189.89
789.012	11042.72
789.332	11042.72
789.653	10491.19
789.973	9582.19
790.293	7567.57
790.613	5409.97
790.933	4092.43
791.253	2815.74
791.573	1927.16
791.893	1505.85
792.212	1475.21
792.532	2001.21
792.852	2884.68
793.171	3962.2
793.491	4751.2
793.811	5849.15
794.13	6663.68
794.45	6947.1
794.769	6699.43
795.088	6850.07
795.408	6362.38
795.727	5854.26
796.046	4684.81
796.365	3778.36
796.684	2823.4
797.004	2042.06
797.323	1523.73
797.642	1250.52
797.96	1485.43
798.279	2059.94
798.598	2879.57
798.917	3760.49
799.236	4710.34
799.554	5297.62
799.873	5780.21
800.192	6765.81
800.51	7631.41
800.829	7294.36
801.147	6561.54
801.466	5718.93
801.784	5011.64
802.102	3852.41
802.421	3168.1
802.739	2606.36
803.057	1919.5
803.375	1327.12
803.693	1161.15
804.011	1375.63
804.329	1768.85
804.647	2501.67
804.965	3088.95
805.283	3834.54
805.601	4426.92
805.918	5256.77
806.236	5570.83
806.554	5890
806.871	5966.61
807.189	6165.77
807.507	6091.72
807.824	5159.74
808.141	4125.62
808.459	3065.97
808.776	2108.45
809.093	1498.19
809.411	1074.33
809.728	913.47
810.045	859.85
810.362	1074.33
810.679	1362.87
810.996	1671.82
811.313	2218.25
811.63	2825.95
811.947	3076.18
812.264	3305.99
812.58	3425.99
812.897	3464.3
813.214	3339.18
813.53	3188.53
813.847	3088.95
814.163	2708.5
814.48	2320.38
814.796	1796.94
815.113	1355.21
815.429	977.31
815.745	711.75
816.061	701.54
816.378	642.81
816.694	867.51
817.01	964.54
817.326	1337.33
817.642	1490.53
817.958	1883.75
818.274	1980.78
818.59	1983.34
818.905	2077.81
819.221	2312.72
819.537	2371.45
819.852	2256.55
820.168	2080.36
820.484	1865.88
820.799	1620.76
821.115	1370.53
821.43	1051.35
821.745	913.47
822.061	780.7
822.376	668.35
822.691	589.19
823.006	622.39
823.322	660.69
823.637	773.04
823.952	859.85
824.267	990.07
824.582	1041.14
824.897	1224.98
825.211	1388.4
825.526	1421.59
825.841	1490.53
826.156	1495.64
826.47	1449.68
826.785	1352.65
827.1	1207.11
827.414	1015.61
827.729	946.66
828.043	739.84
828.357	670.9
828.672	502.38
828.986	435.99
829.3	433.44
829.614	492.16
829.929	566.21
830.243	604.51
830.557	663.24
830.871	676.01
831.185	650.47
831.499	742.39
831.812	849.64
832.126	877.72
832.44	1064.12
832.754	979.86
833.067	1005.39
833.381	910.92
833.695	964.54
834.008	895.6
834.322	862.4
834.635	716.86
834.948	619.83
835.262	533.02
835.575	525.36
835.888	522.8
836.201	430.88
836.515	499.82
836.828	430.88
837.141	415.56
837.454	471.74
837.767	517.7
838.08	586.64
838.392	538.12
838.705	612.17
839.018	599.41
839.331	607.07
839.643	594.3
839.956	566.21
840.269	581.53
840.581	607.07
840.894	543.23
841.206	548.34
841.519	660.69
841.831	510.04
842.143	476.84
842.455	374.71
842.768	413.01
843.08	428.33
843.392	392.58
843.704	397.69
844.016	423.22
844.328	379.81
844.64	413.01
844.952	461.52
845.263	402.8
845.575	425.78
845.887	451.31
846.199	400.24
846.51	502.38
846.822	522.8
847.133	382.37
847.445	435.99
847.756	517.7
848.068	405.35
848.379	451.31
848.69	441.1
849.002	356.83
849.313	428.33
849.624	443.65
849.935	435.99
850.246	359.39
850.557	361.94
850.868	382.37
851.179	354.28
851.49	443.65
851.801	364.49
852.112	364.49
852.422	502.38
852.733	458.97
853.044	415.56
853.354	402.8
853.665	407.9
853.975	415.56
854.286	423.22
854.596	382.37
854.906	369.6
855.217	351.73
855.527	443.65
855.837	435.99
856.147	400.24
856.458	374.71
856.768	395.14
857.078	420.67
857.388	377.26
857.698	349.17
858.007	361.94
858.317	418.12
858.627	420.67
858.937	418.12
859.246	405.35
859.556	364.49
859.866	336.41
860.175	364.49
860.485	397.69
860.794	397.69
861.104	387.48
861.413	433.44
861.722	361.94
862.032	397.69
862.341	428.33
862.65	341.51
862.959	405.35
863.268	410.46
863.577	387.48
863.886	387.48
864.195	364.49
864.504	392.58
864.813	384.92
865.122	397.69
865.43	377.26
865.739	321.09
866.048	354.28
866.356	423.22
866.665	377.26
866.973	346.62
867.282	405.35
867.59	387.48
867.899	395.14
868.207	392.58
868.515	361.94
868.823	336.41
869.132	382.37
869.44	418.12
869.748	364.49
870.056	390.03
870.364	341.51
870.672	415.56
870.98	382.37
871.288	382.37
871.595	384.92
871.903	374.71
872.211	321.09
872.518	481.95
872.826	425.78
873.134	423.22
873.441	372.15
873.749	374.71
874.056	400.24
874.363	448.76
874.671	415.56
874.978	328.75
875.285	351.73
875.592	395.14
875.9	448.76
876.207	372.15
876.514	405.35
876.821	405.35
877.128	413.01
877.435	438.54
877.741	425.78
878.048	407.9
878.355	387.48
878.662	461.52
878.968	326.19
879.275	372.15
879.582	367.05
879.888	336.41
880.195	425.78
880.501	336.41
880.807	344.07
881.114	402.8
881.42	448.76
881.726	356.83
882.032	423.22
882.339	407.9
882.645	471.74
882.951	356.83
883.257	326.19
883.563	476.84
883.869	377.26
884.174	333.85
884.48	315.98
884.786	351.73
885.092	377.26
885.397	402.8
885.703	438.54
886.009	402.8
886.314	430.88
886.62	377.26
886.925	410.46
887.231	387.48
887.536	405.35
887.841	349.17
888.146	438.54
888.452	435.99
888.757	418.12
889.062	367.05
889.367	390.03
889.672	453.86
889.977	377.26
890.282	372.15
890.587	336.41
890.892	405.35
891.196	384.92
891.501	382.37
891.806	425.78
892.11	361.94
892.415	372.15
892.72	351.73
893.024	395.14
893.328	438.54
893.633	395.14
893.937	379.81
894.242	384.92
894.546	387.48
894.85	387.48
895.154	407.9
895.458	390.03
895.762	397.69
896.066	402.8
896.37	413.01
896.674	448.76
896.978	405.35
897.282	372.15
897.586	364.49
897.89	349.17
898.193	372.15
898.497	356.83
898.801	461.52
899.104	469.18
899.408	359.39
899.711	390.03
900.014	413.01
900.318	481.95
900.621	361.94
900.924	354.28
901.228	344.07
901.531	461.52
901.834	415.56
902.137	369.6
902.44	387.48
902.743	392.58
903.046	395.14
903.349	428.33
903.652	369.6
903.955	377.26
904.257	395.14
904.56	453.86
904.863	407.9
905.165	415.56
905.468	397.69
905.77	464.08
906.073	369.6
906.375	397.69
906.678	382.37
906.98	397.69
907.282	405.35
907.584	400.24
907.887	382.37
908.189	354.28
908.491	346.62
908.793	341.51
909.095	328.75
909.397	390.03
909.699	351.73
910.001	438.54
910.302	384.92
910.604	405.35
910.906	425.78
911.208	344.07
911.509	397.69
911.811	397.69
912.112	341.51
912.414	392.58
912.715	453.86
913.017	397.69
913.318	418.12
913.619	390.03
913.92	364.49
914.222	425.78
914.523	402.8
914.824	418.12
915.125	369.6
915.426	428.33
915.727	433.44
916.028	451.31
916.329	387.48
916.63	379.81
916.93	372.15
917.231	359.39
917.532	415.56
917.832	418.12
918.133	415.56
918.434	395.14
918.734	379.81
919.034	402.8
919.335	423.22
919.635	372.15
919.935	392.58
920.236	344.07
920.536	405.35
920.836	435.99
921.136	415.56
921.436	466.63
921.736	382.37
922.036	413.01
922.336	413.01
922.636	397.69
922.936	397.69
923.236	435.99
923.535	354.28
923.835	420.67
924.135	290.45
924.434	361.94
924.734	392.58
925.033	377.26
925.333	379.81
925.632	410.46
925.932	349.17
926.231	435.99
926.53	397.69
926.83	359.39
927.129	298.11
927.428	410.46
927.727	387.48
928.026	377.26
928.325	400.24
928.624	400.24
928.923	359.39
929.222	443.65
929.52	351.73
929.819	390.03
930.118	364.49
930.417	420.67
930.715	390.03
931.014	400.24
931.312	405.35
931.611	402.8
931.909	293
932.207	425.78
932.506	338.96
932.804	361.94
933.102	400.24
933.401	367.05
933.699	402.8
933.997	420.67
934.295	430.88
934.593	410.46
934.891	367.05
935.189	410.46
935.487	441.1
935.784	405.35
936.082	395.14
936.38	397.69
936.677	441.1
936.975	364.49
937.273	428.33
937.57	413.01
937.868	382.37
938.165	435.99
938.463	433.44
938.76	336.41
939.057	415.56
939.354	369.6
939.652	433.44
939.949	369.6
940.246	387.48
940.543	489.61
940.84	410.46
941.137	374.71
941.434	410.46
941.731	407.9
942.028	367.05
942.324	364.49
942.621	331.3
942.918	369.6
943.214	372.15
943.511	346.62
943.807	448.76
944.104	395.14
944.4	359.39
944.697	487.06
944.993	356.83
945.29	300.66
945.586	315.98
945.882	384.92
946.178	413.01
946.474	433.44
946.77	430.88
947.066	453.86
947.362	326.19
947.658	425.78
947.954	420.67
948.25	349.17
948.546	364.49
948.842	433.44
949.137	382.37
949.433	420.67
949.729	461.52
950.024	351.73
950.32	441.1
950.615	400.24
950.91	451.31
951.206	384.92
951.501	415.56
951.796	415.56
952.092	456.42
952.387	466.63
952.682	397.69
952.977	402.8
953.272	413.01
953.567	367.05
953.862	423.22
954.157	382.37
954.452	435.99
954.747	390.03
955.041	428.33
955.336	384.92
955.631	344.07
955.925	372.15
956.22	384.92
956.514	387.48
956.809	397.69
957.103	438.54
957.398	435.99
957.692	372.15
957.986	372.15
958.281	382.37
958.575	377.26
958.869	448.76
959.163	425.78
959.457	441.1
959.751	390.03
960.045	356.83
960.339	469.18
960.633	448.76
960.927	466.63
961.221	435.99
961.514	402.8
961.808	458.97
962.102	372.15
962.395	413.01
962.689	377.26
962.982	395.14
963.276	433.44
963.569	344.07
963.862	354.28
964.156	372.15
964.449	372.15
964.742	349.17
965.035	433.44
965.328	392.58
965.622	359.39
965.915	420.67
966.208	369.6
966.5	395.14
966.793	349.17
967.086	451.31
967.379	425.78
967.672	333.85
967.964	443.65
968.257	425.78
968.55	430.88
968.842	356.83
969.135	377.26
969.427	369.6
969.72	346.62
970.012	364.49
970.304	407.9
970.597	367.05
970.889	410.46
971.181	351.73
971.473	397.69
971.765	377.26
972.057	438.54
972.349	476.84
972.641	395.14
972.933	382.37
973.225	336.41
973.517	356.83
973.809	356.83
974.1	392.58
974.392	364.49
974.684	377.26
974.975	402.8
975.267	433.44
975.558	425.78
975.85	397.69
976.141	387.48
976.432	354.28
976.724	390.03
977.015	428.33
977.306	413.01
977.597	433.44
977.888	458.97
978.179	400.24
978.47	382.37
978.761	354.28
979.052	364.49
979.343	423.22
979.634	425.78
979.925	446.2
980.215	443.65
980.506	392.58
980.797	446.2
981.087	448.76
981.378	387.48
981.668	410.46
981.959	395.14
982.249	402.8
982.54	433.44
982.83	438.54
983.12	420.67
983.41	346.62
983.701	420.67
983.991	425.78
984.281	285.34
984.571	384.92
984.861	377.26
985.151	415.56
985.441	361.94
985.73	356.83
986.02	356.83
986.31	326.19
986.6	367.05
986.889	410.46
987.179	438.54
987.469	372.15
987.758	361.94
988.048	310.87
988.337	425.78
988.626	433.44
988.916	446.2
989.205	384.92
989.494	405.35
989.783	382.37
990.073	328.75
990.362	310.87
990.651	438.54
990.94	443.65
991.229	405.35
991.518	395.14
991.806	390.03
992.095	367.05
992.384	364.49
992.673	443.65
992.961	418.12
993.25	379.81
993.539	438.54
993.827	382.37
994.116	415.56
994.404	341.51
994.692	379.81
994.981	407.9
995.269	379.81
995.557	448.76
995.846	471.74
996.134	349.17
996.422	433.44
996.71	338.96
996.998	392.58
997.286	333.85
997.574	390.03
997.862	354.28
998.15	384.92
998.437	395.14
998.725	377.26
999.013	354.28
999.3	397.69
999.588	423.22
999.876	382.37
1000.163	382.37
1000.45	423.22
1000.738	413.01
1001.025	333.85
1001.313	425.78
1001.6	384.92
1001.887	379.81
1002.174	379.81
1002.461	356.83
1002.748	392.58
1003.036	407.9
1003.322	395.14
1003.609	400.24
1003.896	377.26
1004.183	420.67
1004.47	418.12
1004.757	321.09
1005.043	405.35
1005.33	397.69
1005.617	395.14
1005.903	402.8
1006.19	420.67
1006.476	413.01
1006.763	448.76
1007.049	418.12
1007.335	390.03
1007.622	379.81
1007.908	369.6
1008.194	382.37
1008.48	351.73
1008.766	333.85
1009.053	354.28
1009.339	430.88
1009.625	374.71
1009.91	395.14
1010.196	387.48
1010.482	464.08
1010.768	359.39
1011.054	392.58
1011.339	382.37
1011.625	428.33
1011.911	420.67
1012.196	400.24
1012.482	410.46
1012.767	430.88
1013.052	443.65
1013.338	379.81
1013.623	384.92
1013.908	379.81
1014.194	400.24
1014.479	364.49
1014.764	405.35
1015.049	361.94
1015.334	328.75
1015.619	344.07
1015.904	428.33
1016.189	397.69
1016.474	481.95
1016.758	379.81
1017.043	402.8
1017.328	392.58
1017.613	356.83
1017.897	390.03
1018.182	395.14
1018.466	425.78
1018.751	410.46
1019.035	418.12
1019.32	405.35
1019.604	356.83
1019.888	433.44
1020.172	433.44
1020.457	433.44
