Data from 2025-12-03_xpw_interference_micrometer_634_FLMS141361__54__104.txt Node

Date: Wed Dec 03 15:48:41 MST 2025
User: james
Spectrometer: FLMS14136
Trigger mode: 0
Integration Time (sec): 1.000000E-1
Scans to average: 1
Electric dark correction enabled: true
Nonlinearity correction enabled: false
Boxcar width: 0
XAxis mode: Wavelengths
Number of Pixels in Spectrum: 2048
>>>>>Begin Spectral Data<<<<<
339.315	-73.73
339.697	-73.73
340.079	-73.73
340.461	-73.73
340.843	-137.56
341.225	-30.32
341.607	-106.92
341.989	-53.3
342.371	-35.43
342.752	-81.39
343.134	-99.26
343.516	-45.64
343.897	-45.64
344.279	10.53
344.661	43.73
345.042	69.26
345.423	30.96
345.805	82.03
346.186	84.58
346.567	94.79
346.949	82.03
347.33	156.08
347.711	130.54
348.092	181.61
348.473	253.1
348.854	207.14
349.235	268.42
349.616	255.66
349.997	255.66
350.378	316.94
350.758	293.96
351.139	283.74
351.52	304.17
351.9	299.06
352.281	426.73
352.661	347.58
353.042	393.54
353.422	459.93
353.803	411.41
354.183	408.86
354.563	416.52
354.943	398.65
355.324	350.13
355.704	319.49
356.084	345.03
356.464	413.97
356.844	396.09
357.224	375.67
357.603	385.88
357.983	311.83
358.363	439.5
358.743	316.94
359.122	413.97
359.502	383.33
359.882	281.19
360.261	345.03
360.641	390.99
361.02	311.83
361.399	362.9
361.779	332.26
362.158	368.01
362.537	385.88
362.916	373.11
363.296	347.58
363.675	286.3
364.054	334.81
364.433	322.04
364.812	332.26
365.19	314.38
365.569	309.28
365.948	357.79
366.327	306.72
366.705	373.11
367.084	311.83
367.463	370.56
367.841	283.74
368.22	355.24
368.598	296.51
368.977	332.26
369.355	319.49
369.733	245.44
370.111	373.11
370.49	355.24
370.868	368.01
371.246	339.92
371.624	299.06
372.002	342.47
372.38	398.65
372.758	293.96
373.136	345.03
373.513	380.77
373.891	291.4
374.269	345.03
374.646	311.83
375.024	291.4
375.402	365.45
375.779	388.43
376.157	357.79
376.534	337.37
376.911	316.94
377.289	337.37
377.666	304.17
378.043	380.77
378.42	380.77
378.797	365.45
379.175	339.92
379.552	322.04
379.929	385.88
380.305	324.6
380.682	337.37
381.059	355.24
381.436	388.43
381.813	357.79
382.189	378.22
382.566	339.92
382.943	332.26
383.319	350.13
383.696	329.7
384.072	365.45
384.448	293.96
384.825	352.69
385.201	370.56
385.577	370.56
385.953	373.11
386.329	337.37
386.706	378.22
387.082	431.84
387.458	360.35
387.834	362.9
388.209	452.27
388.585	385.88
388.961	314.38
389.337	329.7
389.713	362.9
390.088	299.06
390.464	311.83
390.839	398.65
391.215	334.81
391.59	408.86
391.966	421.63
392.341	296.51
392.716	324.6
393.092	362.9
393.467	355.24
393.842	375.67
394.217	360.35
394.592	347.58
394.967	357.79
395.342	383.33
395.717	337.37
396.092	375.67
396.467	329.7
396.841	324.6
397.216	316.94
397.591	350.13
397.965	378.22
398.34	304.17
398.714	362.9
399.089	334.81
399.463	426.73
399.838	345.03
400.212	337.37
400.586	383.33
400.961	352.69
401.335	352.69
401.709	352.69
402.083	360.35
402.457	383.33
402.831	383.33
403.205	362.9
403.579	311.83
403.953	309.28
404.326	362.9
404.7	373.11
405.074	332.26
405.447	352.69
405.821	319.49
406.195	342.47
406.568	332.26
406.942	403.75
407.315	393.54
407.688	370.56
408.062	388.43
408.435	342.47
408.808	388.43
409.181	337.37
409.554	385.88
409.927	309.28
410.3	342.47
410.673	380.77
411.046	380.77
411.419	352.69
411.792	370.56
412.165	311.83
412.537	380.77
412.91	350.13
413.283	352.69
413.655	401.2
414.028	393.54
414.4	390.99
414.773	411.41
415.145	352.69
415.517	360.35
415.889	383.33
416.262	406.31
416.634	401.2
417.006	368.01
417.378	390.99
417.75	398.65
418.122	398.65
418.494	375.67
418.866	345.03
419.238	390.99
419.609	380.77
419.981	401.2
420.353	383.33
420.725	424.18
421.096	380.77
421.468	462.48
421.839	411.41
422.211	362.9
422.582	413.97
422.953	339.92
423.325	411.41
423.696	380.77
424.067	342.47
424.438	327.15
424.809	390.99
425.18	385.88
425.551	396.09
425.922	357.79
426.293	390.99
426.664	385.88
427.035	342.47
427.406	398.65
427.776	457.37
428.147	436.95
428.518	393.54
428.888	352.69
429.259	390.99
429.629	413.97
429.999	281.19
430.37	383.33
430.74	393.54
431.11	380.77
431.481	424.18
431.851	413.97
432.221	322.04
432.591	378.22
432.961	380.77
433.331	419.07
433.701	311.83
434.071	327.15
434.441	355.24
434.81	370.56
435.18	375.67
435.55	316.94
435.919	401.2
436.289	388.43
436.658	426.73
437.028	368.01
437.397	375.67
437.767	350.13
438.136	329.7
438.505	311.83
438.875	360.35
439.244	342.47
439.613	380.77
439.982	360.35
440.351	352.69
440.72	385.88
441.089	383.33
441.458	396.09
441.827	436.95
442.196	357.79
442.564	454.82
442.933	383.33
443.302	383.33
443.67	383.33
444.039	339.92
444.407	342.47
444.776	362.9
445.144	398.65
445.513	270.98
445.881	355.24
446.249	357.79
446.617	368.01
446.986	431.84
447.354	424.18
447.722	362.9
448.09	350.13
448.458	401.2
448.826	406.31
449.194	393.54
449.561	378.22
449.929	462.48
450.297	396.09
450.665	378.22
451.032	408.86
451.4	406.31
451.767	421.63
452.135	352.69
452.502	380.77
452.87	350.13
453.237	398.65
453.604	380.77
453.971	316.94
454.339	350.13
454.706	385.88
455.073	426.73
455.44	426.73
455.807	375.67
456.174	421.63
456.541	465.03
456.908	459.93
457.274	424.18
457.641	419.07
458.008	334.81
458.374	419.07
458.741	401.2
459.108	378.22
459.474	401.2
459.841	408.86
460.207	457.37
460.573	396.09
460.94	360.35
461.306	375.67
461.672	370.56
462.038	388.43
462.404	398.65
462.771	345.03
463.137	383.33
463.503	355.24
463.868	431.84
464.234	385.88
464.6	408.86
464.966	454.82
465.332	413.97
465.697	345.03
466.063	362.9
466.429	314.38
466.794	265.87
467.16	393.54
467.525	398.65
467.89	347.58
468.256	403.75
468.621	447.16
468.986	408.86
469.351	401.2
469.717	436.95
470.082	368.01
470.447	434.39
470.812	345.03
471.177	355.24
471.542	393.54
471.906	447.16
472.271	408.86
472.636	413.97
473.001	444.61
473.365	337.37
473.73	403.75
474.094	431.84
474.459	316.94
474.823	485.46
475.188	442.05
475.552	403.75
475.917	360.35
476.281	360.35
476.645	434.39
477.009	442.05
477.373	393.54
477.737	380.77
478.101	411.41
478.465	434.39
478.829	401.2
479.193	342.47
479.557	442.05
479.921	401.2
480.284	403.75
480.648	380.77
481.012	316.94
481.375	401.2
481.739	360.35
482.102	373.11
482.466	329.7
482.829	401.2
483.193	401.2
483.556	375.67
483.919	403.75
484.282	411.41
484.645	319.49
485.009	411.41
485.372	352.69
485.735	362.9
486.098	360.35
486.46	431.84
486.823	421.63
487.186	413.97
487.549	362.9
487.912	411.41
488.274	370.56
488.637	390.99
488.999	378.22
489.362	373.11
489.724	329.7
490.087	355.24
490.449	390.99
490.811	319.49
491.174	373.11
491.536	447.16
491.898	434.39
492.26	421.63
492.622	396.09
492.984	342.47
493.346	383.33
493.708	342.47
494.07	411.41
494.432	352.69
494.794	454.82
495.155	465.03
495.517	454.82
495.879	421.63
496.24	342.47
496.602	383.33
496.963	408.86
497.325	362.9
497.686	472.69
498.048	362.9
498.409	424.18
498.77	380.77
499.131	378.22
499.492	334.81
499.854	465.03
500.215	403.75
500.576	390.99
500.937	472.69
501.298	373.11
501.658	368.01
502.019	403.75
502.38	329.7
502.741	360.35
503.101	362.9
503.462	370.56
503.823	373.11
504.183	370.56
504.543	370.56
504.904	378.22
505.264	360.35
505.625	352.69
505.985	426.73
506.345	350.13
506.705	442.05
507.065	416.52
507.426	449.71
507.786	475.25
508.146	426.73
508.505	406.31
508.865	373.11
509.225	411.41
509.585	500.78
509.945	413.97
510.304	383.33
510.664	347.58
511.024	339.92
511.383	380.77
511.743	393.54
512.102	393.54
512.462	309.28
512.821	345.03
513.18	431.84
513.539	434.39
513.899	352.69
514.258	350.13
514.617	352.69
514.976	390.99
515.335	408.86
515.694	403.75
516.053	411.41
516.412	383.33
516.771	411.41
517.129	365.45
517.488	352.69
517.847	452.27
518.205	332.26
518.564	411.41
518.922	444.61
519.281	393.54
519.639	263.32
519.998	352.69
520.356	380.77
520.714	368.01
521.073	383.33
521.431	393.54
521.789	368.01
522.147	401.2
522.505	452.27
522.863	454.82
523.221	347.58
523.579	380.77
523.937	421.63
524.295	396.09
524.652	393.54
525.01	355.24
525.368	329.7
525.725	329.7
526.083	316.94
526.44	352.69
526.798	413.97
527.155	421.63
527.513	385.88
527.87	411.41
528.227	311.83
528.584	413.97
528.942	472.69
529.299	434.39
529.656	421.63
530.013	424.18
530.37	342.47
530.727	385.88
531.083	378.22
531.44	452.27
531.797	383.33
532.154	383.33
532.511	383.33
532.867	365.45
533.224	334.81
533.58	495.67
533.937	373.11
534.293	393.54
534.65	373.11
535.006	368.01
535.362	306.72
535.718	383.33
536.075	413.97
536.431	419.07
536.787	421.63
537.143	421.63
537.499	403.75
537.855	413.97
538.211	380.77
538.567	293.96
538.923	375.67
539.278	413.97
539.634	368.01
539.99	385.88
540.345	342.47
540.701	378.22
541.056	347.58
541.412	360.35
541.767	368.01
542.123	337.37
542.478	452.27
542.833	396.09
543.188	385.88
543.544	442.05
543.899	406.31
544.254	339.92
544.609	383.33
544.964	424.18
545.319	396.09
545.674	434.39
546.029	390.99
546.383	378.22
546.738	419.07
547.093	465.03
547.447	403.75
547.802	360.35
548.157	370.56
548.511	431.84
548.866	352.69
549.22	352.69
549.574	339.92
549.929	411.41
550.283	360.35
550.637	383.33
550.991	434.39
551.345	390.99
551.699	370.56
552.053	426.73
552.407	413.97
552.761	439.5
553.115	396.09
553.469	431.84
553.823	403.75
554.176	424.18
554.53	385.88
554.884	434.39
555.237	671.86
555.591	470.14
555.944	495.67
556.298	393.54
556.651	393.54
557.005	434.39
557.358	370.56
557.711	475.25
558.064	424.18
558.417	362.9
558.771	495.67
559.124	390.99
559.477	383.33
559.83	357.79
560.182	403.75
560.535	429.29
560.888	350.13
561.241	383.33
561.594	406.31
561.946	357.79
562.299	406.31
562.651	431.84
563.004	378.22
563.356	352.69
563.709	360.35
564.061	388.43
564.413	355.24
564.766	442.05
565.118	403.75
565.47	380.77
565.822	380.77
566.174	373.11
566.526	350.13
566.878	393.54
567.23	401.2
567.582	365.45
567.934	383.33
568.286	396.09
568.638	378.22
568.989	370.56
569.341	373.11
569.693	327.15
570.044	357.79
570.396	426.73
570.747	370.56
571.098	347.58
571.45	411.41
571.801	442.05
572.152	408.86
572.504	390.99
572.855	406.31
573.206	385.88
573.557	401.2
573.908	401.2
574.259	370.56
574.61	393.54
574.961	373.11
575.311	467.59
575.662	411.41
576.013	345.03
576.364	352.69
576.714	424.18
577.065	378.22
577.415	360.35
577.766	388.43
578.116	357.79
578.467	337.37
578.817	390.99
579.167	355.24
579.518	370.56
579.868	452.27
580.218	370.56
580.568	396.09
580.918	403.75
581.268	421.63
581.618	426.73
581.968	375.67
582.318	454.82
582.668	383.33
583.017	406.31
583.367	413.97
583.717	378.22
584.066	368.01
584.416	393.54
584.765	424.18
585.115	393.54
585.464	375.67
585.814	339.92
586.163	419.07
586.512	357.79
586.862	332.26
587.211	378.22
587.56	319.49
587.909	334.81
588.258	345.03
588.607	383.33
588.956	370.56
589.305	442.05
589.654	347.58
590.002	373.11
590.351	408.86
590.7	421.63
591.048	390.99
591.397	375.67
591.746	383.33
592.094	360.35
592.443	385.88
592.791	345.03
593.139	357.79
593.488	352.69
593.836	314.38
594.184	383.33
594.532	383.33
594.88	380.77
595.228	480.35
595.576	480.35
595.924	424.18
596.272	383.33
596.62	396.09
596.968	406.31
597.316	436.95
597.664	403.75
598.011	398.65
598.359	368.01
598.706	383.33
599.054	373.11
599.402	383.33
599.749	401.2
600.096	350.13
600.444	398.65
600.791	429.29
601.138	296.51
601.485	360.35
601.833	345.03
602.18	421.63
602.527	467.59
602.874	365.45
603.221	406.31
603.568	403.75
603.914	375.67
604.261	383.33
604.608	357.79
604.955	388.43
605.301	388.43
605.648	291.4
605.995	424.18
606.341	411.41
606.688	406.31
607.034	375.67
607.38	424.18
607.727	383.33
608.073	396.09
608.419	388.43
608.765	439.5
609.112	398.65
609.458	434.39
609.804	368.01
610.15	355.24
610.496	390.99
610.842	406.31
611.187	388.43
611.533	350.13
611.879	398.65
612.225	375.67
612.57	403.75
612.916	396.09
613.261	375.67
613.607	467.59
613.952	449.71
614.298	398.65
614.643	408.86
614.989	383.33
615.334	398.65
615.679	390.99
616.024	365.45
616.369	457.37
616.714	373.11
617.059	334.81
617.404	431.84
617.749	362.9
618.094	373.11
618.439	454.82
618.784	383.33
619.129	411.41
619.473	424.18
619.818	393.54
620.163	393.54
620.507	383.33
620.852	299.06
621.196	408.86
621.54	373.11
621.885	403.75
622.229	393.54
622.573	396.09
622.918	411.41
623.262	429.29
623.606	449.71
623.95	383.33
624.294	413.97
624.638	339.92
624.982	396.09
625.326	380.77
625.67	378.22
626.013	383.33
626.357	390.99
626.701	322.04
627.044	339.92
627.388	411.41
627.731	342.47
628.075	329.7
628.418	373.11
628.762	385.88
629.105	360.35
629.448	424.18
629.792	436.95
630.135	368.01
630.478	352.69
630.821	283.74
631.164	373.11
631.507	393.54
631.85	375.67
632.193	408.86
632.536	357.79
632.879	383.33
633.221	398.65
633.564	398.65
633.907	390.99
634.249	406.31
634.592	373.11
634.935	401.2
635.277	390.99
635.619	411.41
635.962	373.11
636.304	347.58
636.646	380.77
636.989	411.41
637.331	380.77
637.673	347.58
638.015	390.99
638.357	401.2
638.699	416.52
639.041	370.56
639.383	319.49
639.725	345.03
640.067	396.09
640.408	378.22
640.75	339.92
641.092	350.13
641.433	332.26
641.775	403.75
642.116	488.01
642.458	493.12
642.799	396.09
643.141	424.18
643.482	393.54
643.823	316.94
644.164	370.56
644.506	332.26
644.847	388.43
645.188	459.93
645.529	350.13
645.87	350.13
646.211	403.75
646.552	411.41
646.893	360.35
647.233	360.35
647.574	334.81
647.915	408.86
648.255	345.03
648.596	334.81
648.937	365.45
649.277	383.33
649.618	385.88
649.958	362.9
650.298	368.01
650.639	368.01
650.979	373.11
651.319	342.47
651.659	403.75
651.999	390.99
652.339	360.35
652.679	388.43
653.019	352.69
653.359	357.79
653.699	406.31
654.039	370.56
654.379	390.99
654.719	342.47
655.058	345.03
655.398	357.79
655.737	426.73
656.077	360.35
656.416	413.97
656.756	449.71
657.095	350.13
657.435	388.43
657.774	334.81
658.113	383.33
658.452	431.84
658.792	447.16
659.131	396.09
659.47	383.33
659.809	332.26
660.148	396.09
660.487	332.26
660.826	316.94
661.164	393.54
661.503	424.18
661.842	368.01
662.181	357.79
662.519	375.67
662.858	378.22
663.196	368.01
663.535	375.67
663.873	385.88
664.212	454.82
664.55	442.05
664.888	396.09
665.226	403.75
665.565	311.83
665.903	531.42
666.241	421.63
666.579	368.01
666.917	413.97
667.255	347.58
667.593	370.56
667.931	401.2
668.268	385.88
668.606	398.65
668.944	370.56
669.282	431.84
669.619	355.24
669.957	337.37
670.294	401.2
670.632	350.13
670.969	380.77
671.307	342.47
671.644	426.73
671.981	426.73
672.318	350.13
672.656	390.99
672.993	362.9
673.33	352.69
673.667	393.54
674.004	416.52
674.341	375.67
674.678	347.58
675.015	378.22
675.351	362.9
675.688	362.9
676.025	408.86
676.362	401.2
676.698	365.45
677.035	434.39
677.371	419.07
677.708	390.99
678.044	396.09
678.38	357.79
678.717	352.69
679.053	426.73
679.389	365.45
679.725	332.26
680.062	406.31
680.398	398.65
680.734	383.33
681.07	413.97
681.406	429.29
681.742	408.86
682.077	416.52
682.413	434.39
682.749	449.71
683.085	375.67
683.42	421.63
683.756	413.97
684.091	368.01
684.427	345.03
684.762	306.72
685.098	385.88
685.433	419.07
685.768	370.56
686.104	373.11
686.439	339.92
686.774	383.33
687.109	421.63
687.444	431.84
687.779	403.75
688.114	411.41
688.449	347.58
688.784	380.77
689.119	355.24
689.454	378.22
689.789	385.88
690.123	390.99
690.458	329.7
690.792	383.33
691.127	416.52
691.461	373.11
691.796	416.52
692.13	334.81
692.465	383.33
692.799	322.04
693.133	347.58
693.467	388.43
693.802	357.79
694.136	362.9
694.47	393.54
694.804	421.63
695.138	390.99
695.472	442.05
695.806	337.37
696.139	362.9
696.473	416.52
696.807	329.7
697.141	365.45
697.474	385.88
697.808	398.65
698.141	378.22
698.475	304.17
698.808	311.83
699.142	388.43
699.475	390.99
699.808	339.92
700.142	368.01
700.475	383.33
700.808	396.09
701.141	334.81
701.474	355.24
701.807	283.74
702.14	347.58
702.473	383.33
702.806	301.62
703.139	398.65
703.472	424.18
703.804	396.09
704.137	408.86
704.47	408.86
704.802	431.84
705.135	419.07
705.467	393.54
705.8	350.13
706.132	436.95
706.464	370.56
706.797	426.73
707.129	362.9
707.461	339.92
707.793	424.18
708.125	406.31
708.457	403.75
708.789	408.86
709.121	350.13
709.453	424.18
709.785	378.22
710.117	337.37
710.449	339.92
710.781	431.84
711.112	357.79
711.444	360.35
711.775	375.67
712.107	365.45
712.438	370.56
712.77	375.67
713.101	442.05
713.433	413.97
713.764	362.9
714.095	396.09
714.426	408.86
714.757	380.77
715.089	337.37
715.42	378.22
715.751	383.33
716.082	375.67
716.412	457.37
716.743	380.77
717.074	370.56
717.405	419.07
717.736	352.69
718.066	408.86
718.397	431.84
718.727	442.05
719.058	385.88
719.388	352.69
719.719	421.63
720.049	350.13
720.38	324.6
720.71	393.54
721.04	357.79
721.37	334.81
721.7	334.81
722.031	301.62
722.361	373.11
722.691	401.2
723.021	393.54
723.35	362.9
723.68	373.11
724.01	383.33
724.34	406.31
724.67	403.75
724.999	393.54
725.329	429.29
725.658	408.86
725.988	373.11
726.317	322.04
726.647	332.26
726.976	431.84
727.306	447.16
727.635	368.01
727.964	434.39
728.293	378.22
728.622	380.77
728.952	398.65
729.281	406.31
729.61	419.07
729.939	345.03
730.267	431.84
730.596	380.77
730.925	393.54
731.254	421.63
731.583	480.35
731.911	360.35
732.24	370.56
732.568	383.33
732.897	355.24
733.225	411.41
733.554	324.6
733.882	416.52
734.21	413.97
734.539	398.65
734.867	365.45
735.195	362.9
735.523	383.33
735.851	408.86
736.179	324.6
736.507	311.83
736.835	337.37
737.163	393.54
737.491	416.52
737.819	388.43
738.147	408.86
738.474	299.06
738.802	429.29
739.13	342.47
739.457	390.99
739.785	416.52
740.112	334.81
740.44	329.7
740.767	306.72
741.094	401.2
741.422	362.9
741.749	362.9
742.076	329.7
742.403	462.48
742.73	375.67
743.057	352.69
743.384	357.79
743.711	390.99
744.038	390.99
744.365	429.29
744.692	419.07
745.018	339.92
745.345	324.6
745.672	365.45
745.998	380.77
746.325	355.24
746.651	411.41
746.978	352.69
747.304	357.79
747.631	370.56
747.957	393.54
748.283	426.73
748.61	342.47
748.936	355.24
749.262	390.99
749.588	291.4
749.914	378.22
750.24	393.54
750.566	357.79
750.892	385.88
751.218	424.18
751.543	329.7
751.869	337.37
752.195	339.92
752.521	362.9
752.846	393.54
753.172	442.05
753.497	370.56
753.823	365.45
754.148	393.54
754.473	454.82
754.799	380.77
755.124	329.7
755.449	413.97
755.774	342.47
756.1	357.79
756.425	385.88
756.75	462.48
757.075	373.11
757.4	577.38
757.724	345.03
758.049	352.69
758.374	411.41
758.699	388.43
759.024	475.25
759.348	373.11
759.673	383.33
759.997	375.67
760.322	390.99
760.646	434.39
760.971	388.43
761.295	393.54
761.619	444.61
761.944	488.01
762.268	444.61
762.592	503.33
762.916	495.67
763.24	572.28
763.564	480.35
763.888	567.17
764.212	610.58
764.536	521.21
764.86	518.65
765.184	574.83
765.508	526.32
765.831	526.32
766.155	891.45
766.478	761.23
766.802	876.13
767.126	1052.31
767.449	1363.82
767.772	1483.83
768.096	1557.88
768.419	1496.6
768.742	1473.62
769.066	1363.82
769.389	1146.79
769.712	975.71
770.035	796.97
770.358	814.85
770.681	878.68
771.004	1003.8
771.327	1200.41
771.65	1606.39
771.972	2094.09
772.295	2459.22
772.618	2786.05
772.941	3054.16
773.263	3179.27
773.586	2985.22
773.908	2911.17
774.231	2604.76
774.553	2168.14
774.875	1744.28
775.198	1325.52
775.52	1126.36
775.842	1167.21
776.164	1473.62
776.487	2078.77
776.809	2589.44
777.131	3255.88
777.453	3684.84
777.775	4083.17
778.096	4718.96
778.418	4708.75
778.74	4279.78
779.062	3779.32
779.384	3432.06
779.705	3123.1
780.027	2627.75
780.348	2020.04
780.67	1560.43
780.991	1442.98
781.313	1767.26
781.634	2392.83
781.955	3161.4
782.277	4489.16
782.598	5640.73
782.919	6565.05
783.24	7055.3
783.561	7246.81
783.882	7318.3
784.203	7157.44
784.524	5975.22
784.845	4892.59
785.166	3672.08
785.487	2773.29
785.807	2078.77
786.128	1545.11
786.449	1442.98
786.769	1721.3
787.09	2502.63
787.41	3855.92
787.731	5467.1
788.051	7111.48
788.372	8472.43
788.692	10292.99
789.012	11291.36
789.332	11253.06
789.653	11207.1
789.973	10142.34
790.293	8109.85
790.613	5867.98
790.933	4300.21
791.253	3036.29
791.573	2122.18
791.893	1621.71
792.212	1542.56
792.532	1897.48
792.852	2602.21
793.171	3559.73
793.491	4570.87
793.811	5712.23
794.13	6536.97
794.45	6930.19
794.769	6756.56
795.088	7159.99
795.408	6662.08
795.727	6156.51
796.046	5040.69
796.365	4024.44
796.684	2969.9
797.004	2132.39
797.323	1547.67
797.642	1302.54
797.96	1422.55
798.279	1869.39
798.598	2543.48
798.917	3580.16
799.236	4412.56
799.554	5017.71
799.873	5599.88
800.192	6687.62
800.51	7527.68
800.829	7259.57
801.147	6697.83
801.466	5967.56
801.784	5132.61
802.102	4241.48
802.421	3508.66
802.739	2717.11
803.057	1968.97
803.375	1481.28
803.693	1187.64
804.011	1389.36
804.329	1703.42
804.647	2237.08
804.965	2949.47
805.283	3654.2
805.601	4175.09
805.918	5153.04
806.236	5477.32
806.554	5709.67
806.871	5867.98
807.189	6102.89
807.507	6128.43
807.824	5104.52
808.141	4210.84
808.459	3023.52
808.776	2175.8
809.093	1540.01
809.411	1128.91
809.728	916.98
810.045	804.63
810.362	968.05
810.679	1215.73
810.996	1721.3
811.313	2150.26
811.63	2829.46
811.947	3089.91
812.264	3424.4
812.58	3406.53
812.897	3370.78
813.214	3449.93
813.53	3467.81
813.847	3169.06
814.163	2814.14
814.48	2474.54
814.796	1889.82
815.113	1476.17
815.429	973.16
815.745	781.65
816.061	671.86
816.378	692.28
816.694	761.23
817.01	891.45
817.326	1205.51
817.642	1527.24
817.958	1726.4
818.274	1757.04
818.59	1923.01
818.905	2025.15
819.221	2323.89
819.537	2377.51
819.852	2265.17
820.168	2111.96
820.484	1861.73
820.799	1675.34
821.115	1409.78
821.43	1149.34
821.745	950.18
822.061	748.46
822.376	697.39
822.691	590.15
823.006	541.64
823.322	549.3
823.637	717.82
823.952	753.57
824.267	842.93
824.582	952.73
824.897	1164.66
825.211	1248.92
825.526	1353.61
825.841	1368.93
826.156	1356.16
826.47	1397.02
826.785	1376.59
827.1	1082.95
827.414	978.26
827.729	914.43
828.043	771.44
828.357	608.02
828.672	503.33
828.986	470.14
829.3	454.82
829.614	465.03
829.929	490.57
830.243	559.51
830.557	610.58
830.871	608.02
831.185	633.56
831.499	687.18
831.812	853.15
832.126	955.28
832.44	894
832.754	932.3
833.067	1008.9
833.381	1021.67
833.695	1006.35
834.008	842.93
834.322	922.09
834.635	786.76
834.948	620.79
835.262	582.49
835.575	516.1
835.888	488.01
836.201	411.41
836.515	424.18
836.828	380.77
837.141	408.86
837.454	398.65
837.767	467.59
838.08	454.82
838.392	539.08
838.705	605.47
839.018	569.72
839.331	546.74
839.643	526.32
839.956	521.21
840.269	477.8
840.581	556.96
840.894	490.57
841.206	480.35
841.519	671.86
841.831	521.21
842.143	439.5
842.455	406.31
842.768	411.41
843.08	388.43
843.392	442.05
843.704	355.24
844.016	347.58
844.328	345.03
844.64	365.45
844.952	385.88
845.263	444.61
845.575	436.95
845.887	439.5
846.199	429.29
846.51	475.25
846.822	444.61
847.133	470.14
847.445	482.91
847.756	411.41
848.068	373.11
848.379	398.65
848.69	421.63
849.002	421.63
849.313	421.63
849.624	419.07
849.935	339.92
850.246	406.31
850.557	304.17
850.868	350.13
851.179	345.03
851.49	350.13
851.801	362.9
852.112	419.07
852.422	339.92
852.733	373.11
853.044	385.88
853.354	357.79
853.665	416.52
853.975	339.92
854.286	383.33
854.596	342.47
854.906	375.67
855.217	347.58
855.527	370.56
855.837	413.97
856.147	357.79
856.458	439.5
856.768	360.35
857.078	355.24
857.388	424.18
857.698	339.92
858.007	350.13
858.317	447.16
858.627	434.39
858.937	393.54
859.246	421.63
859.556	380.77
859.866	342.47
860.175	368.01
860.485	357.79
860.794	416.52
861.104	396.09
861.413	388.43
861.722	345.03
862.032	365.45
862.341	352.69
862.65	357.79
862.959	472.69
863.268	296.51
863.577	291.4
863.886	362.9
864.195	396.09
864.504	390.99
864.813	324.6
865.122	327.15
865.43	301.62
865.739	291.4
866.048	385.88
866.356	403.75
866.665	360.35
866.973	347.58
867.282	265.87
867.59	378.22
867.899	301.62
868.207	360.35
868.515	339.92
868.823	380.77
869.132	375.67
869.44	373.11
869.748	385.88
870.056	385.88
870.364	365.45
870.672	362.9
870.98	322.04
871.288	342.47
871.595	347.58
871.903	403.75
872.211	332.26
872.518	306.72
872.826	332.26
873.134	390.99
873.441	322.04
873.749	362.9
874.056	375.67
874.363	316.94
874.671	406.31
874.978	449.71
875.285	429.29
875.592	373.11
875.9	426.73
876.207	332.26
876.514	416.52
876.821	390.99
877.128	398.65
877.435	408.86
877.741	337.37
878.048	368.01
878.355	365.45
878.662	329.7
878.968	380.77
879.275	329.7
879.582	370.56
879.888	342.47
880.195	426.73
880.501	319.49
880.807	436.95
881.114	314.38
881.42	347.58
881.726	373.11
882.032	421.63
882.339	368.01
882.645	383.33
882.951	406.31
883.257	378.22
883.563	355.24
883.869	426.73
884.174	393.54
884.48	327.15
884.786	339.92
885.092	352.69
885.397	337.37
885.703	327.15
886.009	365.45
886.314	390.99
886.62	373.11
886.925	436.95
887.231	350.13
887.536	419.07
887.841	370.56
888.146	347.58
888.452	357.79
888.757	426.73
889.062	380.77
889.367	339.92
889.672	365.45
889.977	390.99
890.282	419.07
890.587	390.99
890.892	375.67
891.196	311.83
891.501	345.03
891.806	339.92
892.11	380.77
892.415	398.65
892.72	419.07
893.024	398.65
893.328	477.8
893.633	390.99
893.937	370.56
894.242	355.24
894.546	283.74
894.85	337.37
895.154	370.56
895.458	365.45
895.762	378.22
896.066	398.65
896.37	309.28
896.674	380.77
896.978	378.22
897.282	396.09
897.586	406.31
897.89	304.17
898.193	396.09
898.497	375.67
898.801	393.54
899.104	373.11
899.408	296.51
899.711	398.65
900.014	383.33
900.318	388.43
900.621	398.65
900.924	350.13
901.228	324.6
901.531	357.79
901.834	334.81
902.137	329.7
902.44	411.41
902.743	388.43
903.046	416.52
903.349	408.86
903.652	370.56
903.955	345.03
904.257	406.31
904.56	342.47
904.863	329.7
905.165	411.41
905.468	357.79
905.77	357.79
906.073	383.33
906.375	355.24
906.678	442.05
906.98	360.35
907.282	360.35
907.584	322.04
907.887	342.47
908.189	401.2
908.491	385.88
908.793	416.52
909.095	398.65
909.397	393.54
909.699	385.88
910.001	327.15
910.302	327.15
910.604	411.41
910.906	383.33
911.208	301.62
911.509	375.67
911.811	355.24
912.112	375.67
912.414	368.01
912.715	393.54
913.017	362.9
913.318	316.94
913.619	352.69
913.92	385.88
914.222	332.26
914.523	393.54
914.824	401.2
915.125	449.71
915.426	378.22
915.727	408.86
916.028	378.22
916.329	370.56
916.63	339.92
916.93	396.09
917.231	345.03
917.532	355.24
917.832	447.16
918.133	436.95
918.434	419.07
918.734	419.07
919.034	403.75
919.335	347.58
919.635	408.86
919.935	411.41
920.236	390.99
920.536	388.43
920.836	426.73
921.136	360.35
921.436	436.95
921.736	365.45
922.036	375.67
922.336	368.01
922.636	452.27
922.936	388.43
923.236	368.01
923.535	373.11
923.835	355.24
924.135	385.88
924.434	421.63
924.734	390.99
925.033	383.33
925.333	362.9
925.632	316.94
925.932	380.77
926.231	390.99
926.53	291.4
926.83	388.43
927.129	401.2
927.428	396.09
927.727	350.13
928.026	342.47
928.325	370.56
928.624	355.24
928.923	342.47
929.222	375.67
929.52	383.33
929.819	360.35
930.118	342.47
930.417	393.54
930.715	301.62
931.014	403.75
931.312	406.31
931.611	327.15
931.909	373.11
932.207	296.51
932.506	352.69
932.804	322.04
933.102	355.24
933.401	398.65
933.699	350.13
933.997	368.01
934.295	327.15
934.593	362.9
934.891	416.52
935.189	396.09
935.487	390.99
935.784	406.31
936.082	398.65
936.38	373.11
936.677	327.15
936.975	329.7
937.273	362.9
937.57	319.49
937.868	357.79
938.165	385.88
938.463	360.35
938.76	332.26
939.057	365.45
939.354	350.13
939.652	444.61
939.949	385.88
940.246	413.97
940.543	424.18
940.84	390.99
941.137	322.04
941.434	393.54
941.731	352.69
942.028	413.97
942.324	431.84
942.621	352.69
942.918	383.33
943.214	413.97
943.511	398.65
943.807	339.92
944.104	368.01
944.4	378.22
944.697	357.79
944.993	421.63
945.29	396.09
945.586	360.35
945.882	462.48
946.178	442.05
946.474	319.49
946.77	373.11
947.066	401.2
947.362	365.45
947.658	350.13
947.954	360.35
948.25	342.47
948.546	411.41
948.842	444.61
949.137	350.13
949.433	319.49
949.729	362.9
950.024	375.67
950.32	393.54
950.615	365.45
950.91	370.56
951.206	398.65
951.501	337.37
951.796	383.33
952.092	378.22
952.387	370.56
952.682	426.73
952.977	421.63
953.272	322.04
953.567	431.84
953.862	355.24
954.157	332.26
954.452	339.92
954.747	316.94
955.041	401.2
955.336	403.75
955.631	383.33
955.925	339.92
956.22	329.7
956.514	375.67
956.809	342.47
957.103	327.15
957.398	406.31
957.692	426.73
957.986	393.54
958.281	332.26
958.575	411.41
958.869	368.01
959.163	347.58
959.457	347.58
959.751	362.9
960.045	385.88
960.339	416.52
960.633	339.92
960.927	339.92
961.221	383.33
961.514	352.69
961.808	342.47
962.102	365.45
962.395	360.35
962.689	332.26
962.982	357.79
963.276	393.54
963.569	347.58
963.862	370.56
964.156	388.43
964.449	345.03
964.742	357.79
965.035	385.88
965.328	385.88
965.622	406.31
965.915	337.37
966.208	345.03
966.5	332.26
966.793	352.69
967.086	393.54
967.379	385.88
967.672	357.79
967.964	383.33
968.257	393.54
968.55	419.07
968.842	424.18
969.135	329.7
969.427	352.69
969.72	311.83
970.012	345.03
970.304	490.57
970.597	436.95
970.889	352.69
971.181	378.22
971.473	352.69
971.765	350.13
972.057	373.11
972.349	434.39
972.641	380.77
972.933	347.58
973.225	345.03
973.517	388.43
973.809	316.94
974.1	355.24
974.392	350.13
974.684	357.79
974.975	350.13
975.267	370.56
975.558	393.54
975.85	365.45
976.141	380.77
976.432	365.45
976.724	375.67
977.015	357.79
977.306	347.58
977.597	390.99
977.888	296.51
978.179	291.4
978.47	345.03
978.761	411.41
979.052	360.35
979.343	355.24
979.634	337.37
979.925	357.79
980.215	390.99
980.506	339.92
980.797	388.43
981.087	339.92
981.378	365.45
981.668	380.77
981.959	375.67
982.249	355.24
982.54	380.77
982.83	419.07
983.12	350.13
983.41	357.79
983.701	311.83
983.991	334.81
984.281	350.13
984.571	324.6
984.861	416.52
985.151	296.51
985.441	352.69
985.73	380.77
986.02	388.43
986.31	378.22
986.6	385.88
986.889	388.43
987.179	411.41
987.469	360.35
987.758	365.45
988.048	439.5
988.337	396.09
988.626	390.99
988.916	380.77
989.205	393.54
989.494	385.88
989.783	368.01
990.073	385.88
990.362	396.09
990.651	357.79
990.94	388.43
991.229	329.7
991.518	337.37
991.806	347.58
992.095	345.03
992.384	370.56
992.673	355.24
992.961	293.96
993.25	370.56
993.539	327.15
993.827	436.95
994.116	383.33
994.404	306.72
994.692	345.03
994.981	385.88
995.269	398.65
995.557	449.71
995.846	375.67
996.134	327.15
996.422	408.86
996.71	339.92
996.998	401.2
997.286	383.33
997.574	304.17
997.862	350.13
998.15	401.2
998.437	324.6
998.725	286.3
999.013	362.9
999.3	421.63
999.588	390.99
999.876	413.97
1000.163	401.2
1000.45	403.75
1000.738	329.7
1001.025	319.49
1001.313	398.65
1001.6	319.49
1001.887	362.9
1002.174	319.49
1002.461	390.99
1002.748	390.99
1003.036	375.67
1003.322	398.65
1003.609	385.88
1003.896	406.31
1004.183	421.63
1004.47	362.9
1004.757	421.63
1005.043	429.29
1005.33	342.47
1005.617	355.24
1005.903	357.79
1006.19	390.99
1006.476	401.2
1006.763	373.11
1007.049	434.39
1007.335	370.56
1007.622	355.24
1007.908	309.28
1008.194	373.11
1008.48	357.79
1008.766	339.92
1009.053	281.19
1009.339	345.03
1009.625	347.58
1009.91	345.03
1010.196	411.41
1010.482	388.43
1010.768	408.86
1011.054	365.45
1011.339	408.86
1011.625	421.63
1011.911	375.67
1012.196	299.06
1012.482	434.39
1012.767	324.6
1013.052	334.81
1013.338	362.9
1013.623	360.35
1013.908	408.86
1014.194	373.11
1014.479	301.62
1014.764	332.26
1015.049	339.92
1015.334	350.13
1015.619	332.26
1015.904	357.79
1016.189	368.01
1016.474	314.38
1016.758	329.7
1017.043	403.75
1017.328	355.24
1017.613	370.56
1017.897	347.58
1018.182	360.35
1018.466	337.37
1018.751	342.47
1019.035	339.92
1019.32	365.45
1019.604	421.63
1019.888	365.45
1020.172	365.45
1020.457	365.45
