Data from 2025-12-03_xpw_interference_micrometer_634_FLMS141361__10__060.txt Node

Date: Wed Dec 03 15:48:37 MST 2025
User: james
Spectrometer: FLMS14136
Trigger mode: 0
Integration Time (sec): 1.000000E-1
Scans to average: 1
Electric dark correction enabled: true
Nonlinearity correction enabled: false
Boxcar width: 0
XAxis mode: Wavelengths
Number of Pixels in Spectrum: 2048
>>>>>Begin Spectral Data<<<<<
339.315	-63.36
339.697	-63.36
340.079	-63.36
340.461	-81.23
340.843	-94
341.225	-114.42
341.607	-116.98
341.989	-122.08
342.371	-71.02
342.752	-32.72
343.134	-27.61
343.516	-42.93
343.897	5.59
344.279	5.59
344.661	-2.07
345.042	-19.95
345.423	74.53
345.805	59.21
346.186	135.81
346.567	135.81
346.949	133.25
347.33	158.79
347.711	253.26
348.092	189.43
348.473	184.32
348.854	327.31
349.235	309.44
349.616	278.8
349.997	350.29
350.378	306.88
350.758	276.24
351.139	363.06
351.52	352.84
351.9	368.17
352.281	373.27
352.661	388.59
353.042	324.76
353.422	401.36
353.803	388.59
354.183	365.61
354.563	363.06
354.943	345.18
355.324	368.17
355.704	388.59
356.084	411.57
356.464	380.93
356.844	380.93
357.224	439.66
357.603	409.02
357.983	393.7
358.363	373.27
358.743	383.49
359.122	403.91
359.502	388.59
359.882	391.15
360.261	396.25
360.641	355.4
361.02	401.36
361.399	439.66
361.779	398.81
362.158	375.83
362.537	375.83
362.916	347.74
363.296	357.95
363.675	368.17
364.054	329.86
364.433	391.15
364.812	363.06
365.19	383.49
365.569	393.7
365.948	393.7
366.327	429.45
366.705	289.01
367.084	299.22
367.463	334.97
367.841	411.57
368.22	388.59
368.598	393.7
368.977	429.45
369.355	437.11
369.733	388.59
370.111	378.38
370.49	309.44
370.868	347.74
371.246	324.76
371.624	327.31
372.002	347.74
372.38	322.2
372.758	444.77
373.136	350.29
373.513	347.74
373.891	398.81
374.269	386.04
374.646	411.57
375.024	357.95
375.402	409.02
375.779	378.38
376.157	375.83
376.534	393.7
376.911	403.91
377.289	403.91
377.666	347.74
378.043	401.36
378.42	375.83
378.797	350.29
379.175	406.47
379.552	388.59
379.929	434.55
380.305	406.47
380.682	414.13
381.059	380.93
381.436	363.06
381.813	360.51
382.189	380.93
382.566	380.93
382.943	424.34
383.319	345.18
383.696	368.17
384.072	342.63
384.448	388.59
384.825	462.64
385.201	370.72
385.577	383.49
385.953	401.36
386.329	429.45
386.706	383.49
387.082	403.91
387.458	380.93
387.834	429.45
388.209	327.31
388.585	355.4
388.961	391.15
389.337	388.59
389.713	383.49
390.088	378.38
390.464	386.04
390.839	357.95
391.215	368.17
391.59	360.51
391.966	403.91
392.341	304.33
392.716	398.81
393.092	414.13
393.467	419.23
393.842	432
394.217	426.89
394.592	403.91
394.967	386.04
395.342	398.81
395.717	414.13
396.092	442.21
396.467	401.36
396.841	370.72
397.216	434.55
397.591	386.04
397.965	403.91
398.34	363.06
398.714	368.17
399.089	391.15
399.463	396.25
399.838	421.79
400.212	401.36
400.586	388.59
400.961	363.06
401.335	416.68
401.709	368.17
402.083	352.84
402.457	414.13
402.831	401.36
403.205	411.57
403.579	419.23
403.953	355.4
404.326	350.29
404.7	414.13
405.074	398.81
405.447	409.02
405.821	391.15
406.195	337.52
406.568	375.83
406.942	419.23
407.315	357.95
407.688	414.13
408.062	363.06
408.435	396.25
408.808	409.02
409.181	347.74
409.554	340.08
409.927	355.4
410.3	334.97
410.673	363.06
411.046	332.42
411.419	337.52
411.792	370.72
412.165	452.43
412.537	396.25
412.91	401.36
413.283	419.23
413.655	475.41
414.028	409.02
414.4	416.68
414.773	460.09
415.145	352.84
415.517	416.68
415.889	414.13
416.262	391.15
416.634	368.17
417.006	380.93
417.378	483.07
417.75	329.86
418.122	378.38
418.494	378.38
418.866	398.81
419.238	403.91
419.609	398.81
419.981	409.02
420.353	470.3
420.725	388.59
421.096	365.61
421.468	403.91
421.839	403.91
422.211	454.98
422.582	306.88
422.953	401.36
423.325	411.57
423.696	426.89
424.067	411.57
424.438	419.23
424.809	409.02
425.18	429.45
425.551	396.25
425.922	444.77
426.293	373.27
426.664	363.06
427.035	434.55
427.406	421.79
427.776	406.47
428.147	426.89
428.518	391.15
428.888	396.25
429.259	388.59
429.629	380.93
429.999	391.15
430.37	454.98
430.74	432
431.11	357.95
431.481	368.17
431.851	409.02
432.221	437.11
432.591	352.84
432.961	409.02
433.331	281.35
433.701	368.17
434.071	391.15
434.441	380.93
434.81	414.13
435.18	345.18
435.55	388.59
435.919	383.49
436.289	393.7
436.658	426.89
437.028	416.68
437.397	378.38
437.767	426.89
438.136	432
438.505	370.72
438.875	426.89
439.244	444.77
439.613	462.64
439.982	526.47
440.351	429.45
440.72	493.28
441.089	447.32
441.458	363.06
441.827	401.36
442.196	403.91
442.564	470.3
442.933	442.21
443.302	462.64
443.67	352.84
444.039	386.04
444.407	373.27
444.776	429.45
445.144	322.2
445.513	360.51
445.881	437.11
446.249	472.85
446.617	465.19
446.986	375.83
447.354	398.81
447.722	457.53
448.09	434.55
448.458	452.43
448.826	447.32
449.194	393.7
449.561	360.51
449.929	416.68
450.297	403.91
450.665	472.85
451.032	386.04
451.4	388.59
451.767	452.43
452.135	462.64
452.502	409.02
452.87	411.57
453.237	444.77
453.604	419.23
453.971	449.87
454.339	449.87
454.706	419.23
455.073	334.97
455.44	393.7
455.807	424.34
456.174	363.06
456.541	414.13
456.908	416.68
457.274	375.83
457.641	416.68
458.008	345.18
458.374	355.4
458.741	447.32
459.108	375.83
459.474	411.57
459.841	406.47
460.207	452.43
460.573	457.53
460.94	447.32
461.306	460.09
461.672	426.89
462.038	414.13
462.404	370.72
462.771	386.04
463.137	460.09
463.503	442.21
463.868	360.51
464.234	363.06
464.6	396.25
464.966	414.13
465.332	414.13
465.697	434.55
466.063	426.89
466.429	426.89
466.794	437.11
467.16	426.89
467.525	411.57
467.89	365.61
468.256	380.93
468.621	452.43
468.986	406.47
469.351	424.34
469.717	457.53
470.082	434.55
470.447	403.91
470.812	345.18
471.177	380.93
471.542	406.47
471.906	391.15
472.271	483.07
472.636	452.43
473.001	449.87
473.365	447.32
473.73	424.34
474.094	434.55
474.459	414.13
474.823	475.41
475.188	416.68
475.552	380.93
475.917	416.68
476.281	350.29
476.645	375.83
477.009	345.18
477.373	398.81
477.737	391.15
478.101	403.91
478.465	406.47
478.829	437.11
479.193	368.17
479.557	414.13
479.921	380.93
480.284	416.68
480.648	411.57
481.012	454.98
481.375	391.15
481.739	378.38
482.102	391.15
482.466	363.06
482.829	437.11
483.193	414.13
483.556	398.81
483.919	414.13
484.282	411.57
484.645	421.79
485.009	406.47
485.372	444.77
485.735	411.57
486.098	383.49
486.46	429.45
486.823	452.43
487.186	432
487.549	383.49
487.912	380.93
488.274	409.02
488.637	419.23
488.999	429.45
489.362	421.79
489.724	383.49
490.087	429.45
490.449	429.45
490.811	327.31
491.174	357.95
491.536	421.79
491.898	403.91
492.26	470.3
492.622	485.62
492.984	393.7
493.346	378.38
493.708	355.4
494.07	352.84
494.432	370.72
494.794	457.53
495.155	398.81
495.517	421.79
495.879	457.53
496.24	414.13
496.602	360.51
496.963	434.55
497.325	414.13
497.686	401.36
498.048	467.75
498.409	383.49
498.77	421.79
499.131	426.89
499.492	424.34
499.854	380.93
500.215	416.68
500.576	419.23
500.937	365.61
501.298	396.25
501.658	332.42
502.019	426.89
502.38	465.19
502.741	467.75
503.101	432
503.462	406.47
503.823	457.53
504.183	432
504.543	416.68
504.904	424.34
505.264	457.53
505.625	508.6
505.985	444.77
506.345	437.11
506.705	457.53
507.065	396.25
507.426	406.47
507.786	406.47
508.146	477.96
508.505	421.79
508.865	421.79
509.225	375.83
509.585	493.28
509.945	437.11
510.304	414.13
510.664	414.13
511.024	411.57
511.383	414.13
511.743	396.25
512.102	416.68
512.462	396.25
512.821	434.55
513.18	462.64
513.539	437.11
513.899	416.68
514.258	447.32
514.617	437.11
514.976	475.41
515.335	396.25
515.694	447.32
516.053	396.25
516.412	452.43
516.771	432
517.129	386.04
517.488	396.25
517.847	432
518.205	434.55
518.564	398.81
518.922	462.64
519.281	406.47
519.639	454.98
519.998	472.85
520.356	414.13
520.714	485.62
521.073	452.43
521.431	426.89
521.789	444.77
522.147	350.29
522.505	426.89
522.863	414.13
523.221	447.32
523.579	447.32
523.937	363.06
524.295	462.64
524.652	432
525.01	457.53
525.368	421.79
525.725	386.04
526.083	393.7
526.44	388.59
526.798	488.17
527.155	403.91
527.513	432
527.87	426.89
528.227	424.34
528.584	355.4
528.942	396.25
529.299	454.98
529.656	477.96
530.013	457.53
530.37	437.11
530.727	467.75
531.083	411.57
531.44	426.89
531.797	457.53
532.154	421.79
532.511	432
532.867	352.84
533.224	467.75
533.58	391.15
533.937	403.91
534.293	393.7
534.65	437.11
535.006	386.04
535.362	444.77
535.718	396.25
536.075	447.32
536.431	442.21
536.787	457.53
537.143	447.32
537.499	396.25
537.855	416.68
538.211	403.91
538.567	396.25
538.923	472.85
539.278	437.11
539.634	447.32
539.99	375.83
540.345	442.21
540.701	434.55
541.056	442.21
541.412	396.25
541.767	437.11
542.123	403.91
542.478	380.93
542.833	424.34
543.188	345.18
543.544	437.11
543.899	426.89
544.254	409.02
544.609	416.68
544.964	447.32
545.319	432
545.674	437.11
546.029	383.49
546.383	355.4
546.738	411.57
547.093	454.98
547.447	416.68
547.802	391.15
548.157	401.36
548.511	444.77
548.866	411.57
549.22	442.21
549.574	363.06
549.929	449.87
550.283	401.36
550.637	414.13
550.991	342.63
551.345	442.21
551.699	434.55
552.053	388.59
552.407	396.25
552.761	334.97
553.115	434.55
553.469	457.53
553.823	342.63
554.176	401.36
554.53	442.21
554.884	345.18
555.237	682.23
555.591	467.75
555.944	398.81
556.298	342.63
556.651	396.25
557.005	396.25
557.358	396.25
557.711	444.77
558.064	416.68
558.417	457.53
558.771	554.56
559.124	467.75
559.477	437.11
559.83	411.57
560.182	411.57
560.535	434.55
560.888	421.79
561.241	416.68
561.594	373.27
561.946	439.66
562.299	391.15
562.651	444.77
563.004	432
563.356	391.15
563.709	470.3
564.061	465.19
564.413	416.68
564.766	388.59
565.118	373.27
565.47	342.63
565.822	375.83
566.174	345.18
566.526	429.45
566.878	396.25
567.23	375.83
567.582	406.47
567.934	391.15
568.286	332.42
568.638	365.61
568.989	391.15
569.341	375.83
569.693	424.34
570.044	391.15
570.396	457.53
570.747	495.83
571.098	426.89
571.45	483.07
571.801	429.45
572.152	411.57
572.504	416.68
572.855	426.89
573.206	403.91
573.557	419.23
573.908	444.77
574.259	421.79
574.61	345.18
574.961	467.75
575.311	490.73
575.662	462.64
576.013	414.13
576.364	437.11
576.714	426.89
577.065	403.91
577.415	352.84
577.766	406.47
578.116	426.89
578.467	467.75
578.817	503.49
579.167	411.57
579.518	432
579.868	319.65
580.218	411.57
580.568	429.45
580.918	388.59
581.268	470.3
581.618	465.19
581.968	460.09
582.318	409.02
582.668	352.84
583.017	363.06
583.367	462.64
583.717	434.55
584.066	398.81
584.416	432
584.765	345.18
585.115	373.27
585.464	386.04
585.814	414.13
586.163	454.98
586.512	432
586.862	462.64
587.211	391.15
587.56	375.83
587.909	375.83
588.258	403.91
588.607	454.98
588.956	393.7
589.305	401.36
589.654	426.89
590.002	467.75
590.351	457.53
590.7	370.72
591.048	444.77
591.397	365.61
591.746	380.93
592.094	365.61
592.443	465.19
592.791	421.79
593.139	401.36
593.488	434.55
593.836	406.47
594.184	442.21
594.532	521.37
594.88	439.66
595.228	411.57
595.576	432
595.924	419.23
596.272	424.34
596.62	403.91
596.968	419.23
597.316	424.34
597.664	424.34
598.011	380.93
598.359	380.93
598.706	281.35
599.054	396.25
599.402	406.47
599.749	322.2
600.096	424.34
600.444	365.61
600.791	380.93
601.138	396.25
601.485	380.93
601.833	396.25
602.18	421.79
602.527	409.02
602.874	488.17
603.221	465.19
603.568	467.75
603.914	368.17
604.261	378.38
604.608	447.32
604.955	477.96
605.301	375.83
605.648	363.06
605.995	480.51
606.341	426.89
606.688	442.21
607.034	411.57
607.38	406.47
607.727	465.19
608.073	426.89
608.419	388.59
608.765	403.91
609.112	380.93
609.458	442.21
609.804	472.85
610.15	424.34
610.496	416.68
610.842	449.87
611.187	439.66
611.533	409.02
611.879	411.57
612.225	477.96
612.57	439.66
612.916	347.74
613.261	444.77
613.607	460.09
613.952	406.47
614.298	368.17
614.643	403.91
614.989	386.04
615.334	398.81
615.679	421.79
616.024	460.09
616.369	406.47
616.714	462.64
617.059	403.91
617.404	419.23
617.749	368.17
618.094	360.51
618.439	383.49
618.784	411.57
619.129	388.59
619.473	414.13
619.818	398.81
620.163	467.75
620.507	434.55
620.852	465.19
621.196	457.53
621.54	429.45
621.885	401.36
622.229	421.79
622.573	396.25
622.918	406.47
623.262	460.09
623.606	429.45
623.95	398.81
624.294	406.47
624.638	391.15
624.982	388.59
625.326	434.55
625.67	357.95
626.013	421.79
626.357	414.13
626.701	363.06
627.044	375.83
627.388	383.49
627.731	398.81
628.075	406.47
628.418	340.08
628.762	437.11
629.105	483.07
629.448	409.02
629.792	483.07
630.135	429.45
630.478	391.15
630.821	373.27
631.164	409.02
631.507	470.3
631.85	409.02
632.193	393.7
632.536	406.47
632.879	383.49
633.221	393.7
633.564	454.98
633.907	447.32
634.249	370.72
634.592	411.57
634.935	365.61
635.277	370.72
635.619	447.32
635.962	470.3
636.304	398.81
636.646	432
636.989	485.62
637.331	370.72
637.673	454.98
638.015	373.27
638.357	460.09
638.699	406.47
639.041	414.13
639.383	411.57
639.725	380.93
640.067	429.45
640.408	432
640.75	386.04
641.092	444.77
641.433	352.84
641.775	378.38
642.116	368.17
642.458	365.61
642.799	406.47
643.141	442.21
643.482	398.81
643.823	414.13
644.164	370.72
644.506	442.21
644.847	424.34
645.188	460.09
645.529	365.61
645.87	373.27
646.211	393.7
646.552	406.47
646.893	444.77
647.233	370.72
647.574	432
647.915	365.61
648.255	370.72
648.596	411.57
648.937	388.59
649.277	409.02
649.618	380.93
649.958	454.98
650.298	388.59
650.639	414.13
650.979	480.51
651.319	393.7
651.659	386.04
651.999	373.27
652.339	457.53
652.679	434.55
653.019	442.21
653.359	416.68
653.699	462.64
654.039	437.11
654.379	406.47
654.719	409.02
655.058	401.36
655.398	393.7
655.737	467.75
656.077	426.89
656.416	398.81
656.756	363.06
657.095	365.61
657.435	442.21
657.774	416.68
658.113	429.45
658.452	370.72
658.792	380.93
659.131	414.13
659.47	360.51
659.809	444.77
660.148	414.13
660.487	398.81
660.826	406.47
661.164	419.23
661.503	421.79
661.842	457.53
662.181	444.77
662.519	401.36
662.858	454.98
663.196	378.38
663.535	391.15
663.873	432
664.212	424.34
664.55	386.04
664.888	424.34
665.226	352.84
665.565	347.74
665.903	559.67
666.241	432
666.579	411.57
666.917	437.11
667.255	409.02
667.593	365.61
667.931	434.55
668.268	434.55
668.606	391.15
668.944	414.13
669.282	396.25
669.619	442.21
669.957	437.11
670.294	393.7
670.632	472.85
670.969	365.61
671.307	317.1
671.644	483.07
671.981	483.07
672.318	439.66
672.656	406.47
672.993	429.45
673.33	424.34
673.667	368.17
674.004	444.77
674.341	345.18
674.678	342.63
675.015	411.57
675.351	475.41
675.688	421.79
676.025	452.43
676.362	416.68
676.698	434.55
677.035	396.25
677.371	403.91
677.708	424.34
678.044	467.75
678.38	426.89
678.717	462.64
679.053	386.04
679.389	319.65
679.725	437.11
680.062	462.64
680.398	424.34
680.734	350.29
681.07	429.45
681.406	452.43
681.742	383.49
682.077	380.93
682.413	368.17
682.749	393.7
683.085	398.81
683.42	375.83
683.756	311.99
684.091	378.38
684.427	452.43
684.762	434.55
685.098	447.32
685.433	375.83
685.768	424.34
686.104	388.59
686.439	396.25
686.774	370.72
687.109	421.79
687.444	432
687.779	470.3
688.114	472.85
688.449	434.55
688.784	429.45
689.119	388.59
689.454	454.98
689.789	414.13
690.123	345.18
690.458	363.06
690.792	449.87
691.127	447.32
691.461	437.11
691.796	421.79
692.13	375.83
692.465	398.81
692.799	391.15
693.133	396.25
693.467	337.52
693.802	396.25
694.136	368.17
694.47	383.49
694.804	472.85
695.138	434.55
695.472	457.53
695.806	419.23
696.139	416.68
696.473	434.55
696.807	457.53
697.141	421.79
697.474	409.02
697.808	406.47
698.141	350.29
698.475	437.11
698.808	403.91
699.142	434.55
699.475	375.83
699.808	398.81
700.142	406.47
700.475	437.11
700.808	457.53
701.141	401.36
701.474	449.87
701.807	370.72
702.14	391.15
702.473	401.36
702.806	414.13
703.139	373.27
703.472	373.27
703.804	424.34
704.137	439.66
704.47	462.64
704.802	391.15
705.135	406.47
705.467	437.11
705.8	470.3
706.132	373.27
706.464	429.45
706.797	416.68
707.129	350.29
707.461	444.77
707.793	467.75
708.125	460.09
708.457	411.57
708.789	266.03
709.121	309.44
709.453	375.83
709.785	424.34
710.117	449.87
710.449	409.02
710.781	378.38
711.112	365.61
711.444	442.21
711.775	439.66
712.107	439.66
712.438	388.59
712.77	421.79
713.101	424.34
713.433	393.7
713.764	378.38
714.095	368.17
714.426	419.23
714.757	472.85
715.089	457.53
715.42	393.7
715.751	368.17
716.082	439.66
716.412	424.34
716.743	432
717.074	442.21
717.405	363.06
717.736	419.23
718.066	370.72
718.397	347.74
718.727	444.77
719.058	365.61
719.388	347.74
719.719	403.91
720.049	383.49
720.38	411.57
720.71	391.15
721.04	403.91
721.37	401.36
721.7	370.72
722.031	373.27
722.361	388.59
722.691	401.36
723.021	465.19
723.35	439.66
723.68	375.83
724.01	393.7
724.34	393.7
724.67	396.25
724.999	383.49
725.329	406.47
725.658	432
725.988	462.64
726.317	432
726.647	386.04
726.976	406.47
727.306	322.2
727.635	403.91
727.964	378.38
728.293	386.04
728.622	426.89
728.952	396.25
729.281	396.25
729.61	414.13
729.939	477.96
730.267	416.68
730.596	467.75
730.925	432
731.254	426.89
731.583	421.79
731.911	396.25
732.24	426.89
732.568	424.34
732.897	411.57
733.225	388.59
733.554	401.36
733.882	442.21
734.21	380.93
734.539	398.81
734.867	434.55
735.195	449.87
735.523	414.13
735.851	373.27
736.179	409.02
736.507	386.04
736.835	363.06
737.163	457.53
737.491	375.83
737.819	424.34
738.147	442.21
738.474	375.83
738.802	391.15
739.13	391.15
739.457	345.18
739.785	470.3
740.112	370.72
740.44	398.81
740.767	357.95
741.094	396.25
741.422	495.83
741.749	393.7
742.076	449.87
742.403	414.13
742.73	442.21
743.057	437.11
743.384	467.75
743.711	454.98
744.038	426.89
744.365	480.51
744.692	314.54
745.018	386.04
745.345	432
745.672	396.25
745.998	409.02
746.325	416.68
746.651	406.47
746.978	424.34
747.304	386.04
747.631	429.45
747.957	375.83
748.283	472.85
748.61	411.57
748.936	380.93
749.262	460.09
749.588	416.68
749.914	398.81
750.24	419.23
750.566	363.06
750.892	449.87
751.218	355.4
751.543	398.81
751.869	373.27
752.195	457.53
752.521	393.7
752.846	467.75
753.172	409.02
753.497	360.51
753.823	365.61
754.148	462.64
754.473	447.32
754.799	449.87
755.124	414.13
755.449	421.79
755.774	363.06
756.1	452.43
756.425	465.19
756.75	432
757.075	393.7
757.4	569.88
757.724	444.77
758.049	324.76
758.374	409.02
758.699	401.36
759.024	421.79
759.348	467.75
759.673	391.15
759.997	403.91
760.322	449.87
760.646	449.87
760.971	396.25
761.295	342.63
761.619	472.85
761.944	419.23
762.268	500.94
762.592	483.07
762.916	544.35
763.24	572.44
763.564	490.73
763.888	572.44
764.212	562.22
764.536	526.47
764.86	490.73
765.184	465.19
765.508	521.37
765.831	552.01
766.155	871.18
766.478	848.2
766.802	906.93
767.126	1042.26
767.449	1277.17
767.772	1506.97
768.096	1445.69
768.419	1504.42
768.742	1455.9
769.066	1307.81
769.389	1228.65
769.712	1121.41
770.035	965.66
770.358	876.29
770.681	832.88
771.004	986.08
771.327	1213.33
771.65	1596.34
771.972	1969.13
772.295	2454.28
772.618	2709.61
772.941	2970.06
773.263	2911.33
773.586	2959.84
773.908	2880.69
774.231	2610.03
774.553	2214.26
774.875	1823.59
775.198	1473.78
775.52	1169.93
775.842	1182.69
776.164	1535.06
776.487	2101.91
776.809	2477.26
777.131	3107.94
777.453	3598.19
777.775	4172.7
778.096	4481.66
778.418	4553.15
778.74	4045.03
779.062	3672.24
779.384	3342.85
779.705	2959.84
780.027	2694.29
780.348	2058.5
780.67	1596.34
780.991	1440.58
781.313	1739.33
781.634	2377.67
781.955	3210.07
782.277	4249.3
782.598	5571.95
782.919	6317.54
783.24	6677.56
783.561	7114.19
783.882	7308.25
784.203	6932.9
784.524	5977.94
784.845	4788.06
785.166	3628.83
785.487	2770.89
785.807	2188.72
786.128	1598.89
786.449	1483.99
786.769	1716.35
787.09	2385.33
787.41	3575.21
787.731	5211.92
788.051	6792.46
788.372	8273.42
788.692	10012.27
789.012	11087.25
789.332	11199.59
789.653	11168.95
789.973	10203.78
790.293	8232.57
790.613	5962.62
790.933	4318.24
791.253	3153.9
791.573	2124.89
791.893	1680.6
792.212	1443.14
792.532	1785.29
792.852	2535.98
793.171	3483.29
793.491	4379.52
793.811	5582.16
794.13	6616.28
794.45	6818
794.769	6807.78
795.088	6999.29
795.408	6718.42
795.727	6197.53
796.046	5160.86
796.365	4037.37
796.684	3125.81
797.004	2311.29
797.323	1524.85
797.642	1374.2
797.96	1389.52
798.279	1777.63
798.598	2523.22
798.917	3529.25
799.236	4292.71
799.554	4913.18
799.873	5464.71
800.192	6705.65
800.51	7515.07
800.829	7323.57
801.147	6772.04
801.466	5949.85
801.784	5217.03
802.102	4241.64
802.421	3559.89
802.739	2926.65
803.057	2101.91
803.375	1361.43
803.693	1236.31
804.011	1254.19
804.329	1591.23
804.647	2035.52
804.965	2814.3
805.283	3570.1
805.601	4098.65
805.918	4977.01
806.236	5234.9
806.554	5666.42
806.871	5967.72
807.189	6036.66
807.507	6016.24
807.824	5227.24
808.141	4251.85
808.459	3192.2
808.776	2135.1
809.093	1496.76
809.411	1070.34
809.728	955.44
810.045	912.03
810.362	940.12
810.679	1259.29
810.996	1591.23
811.313	2127.44
811.63	2650.89
811.947	2947.08
812.264	3233.06
812.58	3347.96
812.897	3360.72
813.214	3307.1
813.53	3240.72
813.847	3102.83
814.163	2699.4
814.48	2339.37
814.796	1964.03
815.113	1517.19
815.429	1014.17
815.745	858.41
816.061	756.28
816.378	659.25
816.694	687.34
817.01	889.05
817.326	1164.82
817.642	1471.22
817.958	1708.69
818.274	1772.52
818.59	1818.48
818.905	1946.15
819.221	2186.17
819.537	2354.69
819.852	2352.14
820.168	2068.71
820.484	1974.24
820.799	1736.78
821.115	1453.35
821.43	1180.14
821.745	952.89
822.061	797.13
822.376	628.61
822.691	536.69
823.006	523.92
823.322	562.22
823.637	638.82
823.952	784.37
824.267	891.61
824.582	1047.36
824.897	1149.5
825.211	1320.58
825.526	1397.18
825.841	1450.8
826.156	1483.99
826.47	1494.2
826.785	1338.45
827.1	1259.29
827.414	1113.75
827.729	955.44
828.043	899.27
828.357	674.57
828.672	536.69
828.986	485.62
829.3	477.96
829.614	511.15
829.929	546.9
830.243	615.84
830.557	651.59
830.871	656.7
831.185	730.74
831.499	733.3
831.812	812.45
832.126	906.93
832.44	996.3
832.754	1024.38
833.067	1029.49
833.381	922.25
833.695	947.78
834.008	906.93
834.322	853.31
834.635	758.83
834.948	659.25
835.262	600.52
835.575	559.67
835.888	534.13
836.201	500.94
836.515	483.07
836.828	426.89
837.141	452.43
837.454	449.87
837.767	511.15
838.08	480.51
838.392	569.88
838.705	603.08
839.018	546.9
839.331	546.9
839.643	531.58
839.956	549.46
840.269	592.86
840.581	585.2
840.894	539.24
841.206	521.37
841.519	677.12
841.831	485.62
842.143	516.26
842.455	523.92
842.768	439.66
843.08	398.81
843.392	391.15
843.704	462.64
844.016	414.13
844.328	465.19
844.64	429.45
844.952	454.98
845.263	429.45
845.575	477.96
845.887	493.28
846.199	495.83
846.51	457.53
846.822	424.34
847.133	432
847.445	403.91
847.756	437.11
848.068	437.11
848.379	426.89
848.69	403.91
849.002	380.93
849.313	365.61
849.624	411.57
849.935	421.79
850.246	426.89
850.557	393.7
850.868	442.21
851.179	378.38
851.49	403.91
851.801	416.68
852.112	401.36
852.422	409.02
852.733	439.66
853.044	432
853.354	467.75
853.665	419.23
853.975	378.38
854.286	393.7
854.596	373.27
854.906	411.57
855.217	403.91
855.527	393.7
855.837	401.36
856.147	375.83
856.458	439.66
856.768	355.4
857.078	467.75
857.388	439.66
857.698	406.47
858.007	439.66
858.317	467.75
858.627	442.21
858.937	485.62
859.246	411.57
859.556	398.81
859.866	355.4
860.175	378.38
860.485	365.61
860.794	434.55
861.104	403.91
861.413	421.79
861.722	393.7
862.032	406.47
862.341	426.89
862.65	365.61
862.959	393.7
863.268	380.93
863.577	370.72
863.886	416.68
864.195	386.04
864.504	416.68
864.813	409.02
865.122	429.45
865.43	391.15
865.739	391.15
866.048	340.08
866.356	403.91
866.665	424.34
866.973	363.06
867.282	327.31
867.59	424.34
867.899	411.57
868.207	401.36
868.515	396.25
868.823	373.27
869.132	380.93
869.44	444.77
869.748	383.49
870.056	411.57
870.364	462.64
870.672	373.27
870.98	432
871.288	401.36
871.595	398.81
871.903	398.81
872.211	472.85
872.518	465.19
872.826	393.7
873.134	398.81
873.441	419.23
873.749	409.02
874.056	380.93
874.363	345.18
874.671	378.38
874.978	363.06
875.285	383.49
875.592	449.87
875.9	457.53
876.207	485.62
876.514	437.11
876.821	467.75
877.128	347.74
877.435	477.96
877.741	386.04
878.048	406.47
878.355	421.79
878.662	383.49
878.968	447.32
879.275	401.36
879.582	421.79
879.888	424.34
880.195	421.79
880.501	360.51
880.807	414.13
881.114	357.95
881.42	396.25
881.726	327.31
882.032	373.27
882.339	396.25
882.645	393.7
882.951	375.83
883.257	409.02
883.563	447.32
883.869	370.72
884.174	416.68
884.48	426.89
884.786	378.38
885.092	411.57
885.397	414.13
885.703	488.17
886.009	365.61
886.314	378.38
886.62	424.34
886.925	365.61
887.231	375.83
887.536	334.97
887.841	403.91
888.146	391.15
888.452	462.64
888.757	309.44
889.062	396.25
889.367	350.29
889.672	393.7
889.977	398.81
890.282	403.91
890.587	391.15
890.892	409.02
891.196	396.25
891.501	434.55
891.806	401.36
892.11	383.49
892.415	439.66
892.72	391.15
893.024	442.21
893.328	454.98
893.633	416.68
893.937	368.17
894.242	393.7
894.546	414.13
894.85	462.64
895.154	391.15
895.458	449.87
895.762	432
896.066	416.68
896.37	439.66
896.674	378.38
896.978	460.09
897.282	460.09
897.586	416.68
897.89	444.77
898.193	368.17
898.497	383.49
898.801	465.19
899.104	391.15
899.408	386.04
899.711	460.09
900.014	401.36
900.318	391.15
900.621	454.98
900.924	396.25
901.228	424.34
901.531	393.7
901.834	317.1
902.137	370.72
902.44	365.61
902.743	380.93
903.046	324.76
903.349	363.06
903.652	409.02
903.955	334.97
904.257	490.73
904.56	391.15
904.863	396.25
905.165	414.13
905.468	416.68
905.77	383.49
906.073	403.91
906.375	421.79
906.678	416.68
906.98	370.72
907.282	401.36
907.584	360.51
907.887	449.87
908.189	447.32
908.491	378.38
908.793	398.81
909.095	393.7
909.397	322.2
909.699	401.36
910.001	393.7
910.302	414.13
910.604	396.25
910.906	380.93
911.208	352.84
911.509	324.76
911.811	350.29
912.112	421.79
912.414	393.7
912.715	416.68
913.017	350.29
913.318	414.13
913.619	368.17
913.92	457.53
914.222	421.79
914.523	424.34
914.824	411.57
915.125	454.98
915.426	416.68
915.727	322.2
916.028	370.72
916.329	414.13
916.63	334.97
916.93	386.04
917.231	442.21
917.532	419.23
917.832	365.61
918.133	314.54
918.434	365.61
918.734	429.45
919.034	414.13
919.335	380.93
919.635	365.61
919.935	396.25
920.236	368.17
920.536	289.01
920.836	357.95
921.136	340.08
921.436	421.79
921.736	429.45
922.036	414.13
922.336	357.95
922.636	368.17
922.936	332.42
923.236	414.13
923.535	340.08
923.835	409.02
924.135	409.02
924.434	375.83
924.734	462.64
925.033	439.66
925.333	388.59
925.632	403.91
925.932	370.72
926.231	439.66
926.53	352.84
926.83	434.55
927.129	391.15
927.428	378.38
927.727	465.19
928.026	386.04
928.325	406.47
928.624	388.59
928.923	403.91
929.222	396.25
929.52	345.18
929.819	370.72
930.118	424.34
930.417	432
930.715	360.51
931.014	401.36
931.312	475.41
931.611	477.96
931.909	347.74
932.207	327.31
932.506	393.7
932.804	437.11
933.102	365.61
933.401	378.38
933.699	424.34
933.997	360.51
934.295	406.47
934.593	411.57
934.891	460.09
935.189	401.36
935.487	414.13
935.784	386.04
936.082	460.09
936.38	419.23
936.677	424.34
936.975	411.57
937.273	386.04
937.57	429.45
937.868	439.66
938.165	401.36
938.463	383.49
938.76	350.29
939.057	403.91
939.354	409.02
939.652	378.38
939.949	391.15
940.246	393.7
940.543	401.36
940.84	409.02
941.137	419.23
941.434	403.91
941.731	370.72
942.028	347.74
942.324	439.66
942.621	352.84
942.918	411.57
943.214	352.84
943.511	414.13
943.807	429.45
944.104	380.93
944.4	393.7
944.697	360.51
944.993	421.79
945.29	373.27
945.586	409.02
945.882	380.93
946.178	424.34
946.474	409.02
946.77	503.49
947.066	444.77
947.362	444.77
947.658	391.15
947.954	409.02
948.25	424.34
948.546	447.32
948.842	401.36
949.137	419.23
949.433	363.06
949.729	391.15
950.024	294.12
950.32	434.55
950.615	449.87
950.91	437.11
951.206	403.91
951.501	365.61
951.796	416.68
952.092	444.77
952.387	447.32
952.682	416.68
952.977	396.25
953.272	437.11
953.567	467.75
953.862	452.43
954.157	396.25
954.452	411.57
954.747	406.47
955.041	483.07
955.336	414.13
955.631	421.79
955.925	424.34
956.22	457.53
956.514	439.66
956.809	334.97
957.103	363.06
957.398	345.18
957.692	416.68
957.986	409.02
958.281	426.89
958.575	386.04
958.869	447.32
959.163	375.83
959.457	414.13
959.751	365.61
960.045	365.61
960.339	360.51
960.633	386.04
960.927	411.57
961.221	462.64
961.514	380.93
961.808	378.38
962.102	391.15
962.395	398.81
962.689	373.27
962.982	444.77
963.276	383.49
963.569	363.06
963.862	439.66
964.156	396.25
964.449	411.57
964.742	355.4
965.035	324.76
965.328	409.02
965.622	396.25
965.915	373.27
966.208	396.25
966.5	437.11
966.793	419.23
967.086	416.68
967.379	421.79
967.672	396.25
967.964	380.93
968.257	352.84
968.55	324.76
968.842	414.13
969.135	340.08
969.427	388.59
969.72	411.57
970.012	334.97
970.304	432
970.597	403.91
970.889	409.02
971.181	388.59
971.473	437.11
971.765	434.55
972.057	375.83
972.349	352.84
972.641	409.02
972.933	334.97
973.225	380.93
973.517	324.76
973.809	421.79
974.1	419.23
974.392	401.36
974.684	378.38
974.975	355.4
975.267	327.31
975.558	327.31
975.85	429.45
976.141	419.23
976.432	401.36
976.724	403.91
977.015	409.02
977.306	409.02
977.597	424.34
977.888	311.99
978.179	380.93
978.47	439.66
978.761	444.77
979.052	370.72
979.343	355.4
979.634	357.95
979.925	439.66
980.215	411.57
980.506	342.63
980.797	421.79
981.087	495.83
981.378	409.02
981.668	444.77
981.959	345.18
982.249	388.59
982.54	365.61
982.83	332.42
983.12	411.57
983.41	365.61
983.701	383.49
983.991	345.18
984.281	442.21
984.571	424.34
984.861	370.72
985.151	386.04
985.441	488.17
985.73	398.81
986.02	401.36
986.31	414.13
986.6	360.51
986.889	391.15
987.179	363.06
987.469	419.23
987.758	350.29
988.048	398.81
988.337	342.63
988.626	345.18
988.916	363.06
989.205	373.27
989.494	383.49
989.783	426.89
990.073	334.97
990.362	421.79
990.651	360.51
990.94	386.04
991.229	401.36
991.518	411.57
991.806	373.27
992.095	424.34
992.384	432
992.673	434.55
992.961	393.7
993.25	437.11
993.539	426.89
993.827	403.91
994.116	386.04
994.404	380.93
994.692	411.57
994.981	493.28
995.269	483.07
995.557	396.25
995.846	414.13
996.134	434.55
996.422	383.49
996.71	398.81
996.998	411.57
997.286	386.04
997.574	416.68
997.862	375.83
998.15	393.7
998.437	347.74
998.725	345.18
999.013	396.25
999.3	437.11
999.588	442.21
999.876	373.27
1000.163	447.32
1000.45	324.76
1000.738	411.57
1001.025	378.38
1001.313	370.72
1001.6	365.61
1001.887	401.36
1002.174	409.02
1002.461	460.09
1002.748	424.34
1003.036	421.79
1003.322	327.31
1003.609	352.84
1003.896	357.95
1004.183	360.51
1004.47	403.91
1004.757	347.74
1005.043	355.4
1005.33	373.27
1005.617	337.52
1005.903	360.51
1006.19	403.91
1006.476	457.53
1006.763	380.93
1007.049	357.95
1007.335	327.31
1007.622	360.51
1007.908	350.29
1008.194	383.49
1008.48	414.13
1008.766	368.17
1009.053	470.3
1009.339	403.91
1009.625	396.25
1009.91	406.47
1010.196	352.84
1010.482	373.27
1010.768	375.83
1011.054	375.83
1011.339	370.72
1011.625	355.4
1011.911	345.18
1012.196	421.79
1012.482	365.61
1012.767	449.87
1013.052	447.32
1013.338	319.65
1013.623	398.81
1013.908	365.61
1014.194	383.49
1014.479	370.72
1014.764	368.17
1015.049	332.42
1015.334	329.86
1015.619	396.25
1015.904	368.17
1016.189	388.59
1016.474	375.83
1016.758	363.06
1017.043	355.4
1017.328	414.13
1017.613	357.95
1017.897	426.89
1018.182	396.25
1018.466	416.68
1018.751	365.61
1019.035	398.81
1019.32	340.08
1019.604	391.15
1019.888	426.89
1020.172	426.89
1020.457	426.89
