Data from 2025-12-03_xpw_interference_micrometer_634_reference_FLMS141361__59__509.txt Node

Date: Wed Dec 03 15:52:25 MST 2025
User: james
Spectrometer: FLMS14136
Trigger mode: 0
Integration Time (sec): 1.000000E-1
Scans to average: 1
Electric dark correction enabled: true
Nonlinearity correction enabled: false
Boxcar width: 0
XAxis mode: Wavelengths
Number of Pixels in Spectrum: 2048
>>>>>Begin Spectral Data<<<<<
339.315	-50.11
339.697	-50.11
340.079	-50.11
340.461	-96.07
340.843	-157.35
341.225	-134.37
341.607	-162.46
341.989	-147.14
342.371	-85.86
342.752	-29.68
343.134	-55.22
343.516	-6.7
343.897	-29.68
344.279	-29.68
344.661	54.58
345.042	41.81
345.423	64.79
345.805	136.29
346.186	131.18
346.567	105.65
346.949	146.5
347.33	161.82
347.711	212.89
348.092	266.51
348.473	228.21
348.854	243.53
349.235	225.65
349.616	266.51
349.997	304.81
350.378	289.49
350.758	338
351.139	340.56
351.52	248.64
351.9	343.11
352.281	320.13
352.661	366.09
353.042	330.34
353.422	360.98
353.803	378.86
354.183	340.56
354.563	353.32
354.943	299.7
355.324	432.48
355.704	412.05
356.084	406.94
356.464	378.86
356.844	376.3
357.224	442.69
357.603	401.84
357.983	368.64
358.363	371.2
358.743	419.71
359.122	371.2
359.502	417.16
359.882	320.13
360.261	386.52
360.641	360.98
361.02	386.52
361.399	281.83
361.779	289.49
362.158	445.25
362.537	340.56
362.916	373.75
363.296	378.86
363.675	350.77
364.054	353.32
364.433	396.73
364.812	399.28
365.19	355.88
365.569	366.09
365.948	358.43
366.327	394.18
366.705	381.41
367.084	338
367.463	317.58
367.841	376.3
368.22	429.93
368.598	355.88
368.977	284.38
369.355	325.24
369.733	389.07
370.111	381.41
370.49	338
370.868	332.9
371.246	302.26
371.624	355.88
372.002	320.13
372.38	320.13
372.758	322.68
373.136	399.28
373.513	307.36
373.891	412.05
374.269	320.13
374.646	338
375.024	325.24
375.402	350.77
375.779	335.45
376.157	325.24
376.534	422.26
376.911	292.04
377.289	350.77
377.666	343.11
378.043	404.39
378.42	376.3
378.797	312.47
379.175	355.88
379.552	312.47
379.929	394.18
380.305	363.54
380.682	373.75
381.059	338
381.436	317.58
381.813	399.28
382.189	383.96
382.566	389.07
382.943	309.92
383.319	335.45
383.696	371.2
384.072	353.32
384.448	381.41
384.825	350.77
385.201	327.79
385.577	386.52
385.953	332.9
386.329	279.28
386.706	366.09
387.082	330.34
387.458	338
387.834	368.64
388.209	360.98
388.585	378.86
388.961	360.98
389.337	355.88
389.713	386.52
390.088	376.3
390.464	366.09
390.839	350.77
391.215	317.58
391.59	358.43
391.966	286.94
392.341	373.75
392.716	355.88
393.092	340.56
393.467	345.66
393.842	376.3
394.217	363.54
394.592	419.71
394.967	360.98
395.342	332.9
395.717	348.22
396.092	373.75
396.467	360.98
396.841	360.98
397.216	358.43
397.591	376.3
397.965	414.6
398.34	366.09
398.714	371.2
399.089	386.52
399.463	363.54
399.838	343.11
400.212	307.36
400.586	335.45
400.961	383.96
401.335	368.64
401.709	389.07
402.083	320.13
402.457	363.54
402.831	383.96
403.205	437.59
403.579	350.77
403.953	330.34
404.326	353.32
404.7	302.26
405.074	368.64
405.447	386.52
405.821	325.24
406.195	373.75
406.568	363.54
406.942	355.88
407.315	378.86
407.688	368.64
408.062	394.18
408.435	343.11
408.808	378.86
409.181	391.62
409.554	350.77
409.927	435.03
410.3	373.75
410.673	325.24
411.046	376.3
411.419	345.66
411.792	353.32
412.165	363.54
412.537	378.86
412.91	363.54
413.283	389.07
413.655	348.22
414.028	368.64
414.4	325.24
414.773	348.22
415.145	371.2
415.517	355.88
415.889	366.09
416.262	358.43
416.634	406.94
417.006	350.77
417.378	353.32
417.75	332.9
418.122	325.24
418.494	435.03
418.866	355.88
419.238	368.64
419.609	327.79
419.981	399.28
420.353	389.07
420.725	383.96
421.096	340.56
421.468	417.16
421.839	442.69
422.211	386.52
422.582	424.82
422.953	391.62
423.325	389.07
423.696	381.41
424.067	445.25
424.438	327.79
424.809	371.2
425.18	406.94
425.551	376.3
425.922	378.86
426.293	427.37
426.664	401.84
427.035	470.78
427.406	394.18
427.776	366.09
428.147	383.96
428.518	371.2
428.888	386.52
429.259	399.28
429.629	414.6
429.999	404.39
430.37	417.16
430.74	409.5
431.11	381.41
431.481	363.54
431.851	404.39
432.221	383.96
432.591	422.26
432.961	381.41
433.331	409.5
433.701	353.32
434.071	419.71
434.441	442.69
434.81	376.3
435.18	371.2
435.55	429.93
435.919	386.52
436.289	345.66
436.658	394.18
437.028	442.69
437.397	366.09
437.767	394.18
438.136	348.22
438.505	383.96
438.875	427.37
439.244	455.46
439.613	409.5
439.982	386.52
440.351	373.75
440.72	363.54
441.089	363.54
441.458	386.52
441.827	435.03
442.196	348.22
442.564	419.71
442.933	389.07
443.302	338
443.67	368.64
444.039	412.05
444.407	478.44
444.776	376.3
445.144	325.24
445.513	360.98
445.881	330.34
446.249	399.28
446.617	440.14
446.986	378.86
447.354	386.52
447.722	325.24
448.09	371.2
448.458	371.2
448.826	447.8
449.194	348.22
449.561	368.64
449.929	401.84
450.297	427.37
450.665	363.54
451.032	366.09
451.4	360.98
451.767	401.84
452.135	389.07
452.502	312.47
452.87	343.11
453.237	396.73
453.604	366.09
453.971	406.94
454.339	383.96
454.706	429.93
455.073	409.5
455.44	414.6
455.807	445.25
456.174	440.14
456.541	366.09
456.908	381.41
457.274	440.14
457.641	470.78
458.008	437.59
458.374	353.32
458.741	376.3
459.108	406.94
459.474	498.87
459.841	363.54
460.207	414.6
460.573	404.39
460.94	394.18
461.306	394.18
461.672	399.28
462.038	378.86
462.404	399.28
462.771	404.39
463.137	394.18
463.503	371.2
463.868	437.59
464.234	401.84
464.6	378.86
464.966	404.39
465.332	391.62
465.697	353.32
466.063	376.3
466.429	458.01
466.794	394.18
467.16	473.33
467.525	378.86
467.89	327.79
468.256	307.36
468.621	399.28
468.986	371.2
469.351	442.69
469.717	406.94
470.082	396.73
470.447	396.73
470.812	355.88
471.177	366.09
471.542	491.21
471.906	358.43
472.271	414.6
472.636	399.28
473.001	389.07
473.365	463.12
473.73	427.37
474.094	368.64
474.459	396.73
474.823	371.2
475.188	406.94
475.552	424.82
475.917	427.37
476.281	440.14
476.645	422.26
477.009	358.43
477.373	429.93
477.737	383.96
478.101	417.16
478.465	447.8
478.829	391.62
479.193	412.05
479.557	475.89
479.921	465.67
480.284	378.86
480.648	473.33
481.012	391.62
481.375	414.6
481.739	435.03
482.102	412.05
482.466	396.73
482.829	447.8
483.193	424.82
483.556	389.07
483.919	345.66
484.282	394.18
484.645	424.82
485.009	394.18
485.372	330.34
485.735	373.75
486.098	465.67
486.46	373.75
486.823	373.75
487.186	417.16
487.549	389.07
487.912	394.18
488.274	389.07
488.637	363.54
488.999	373.75
489.362	335.45
489.724	383.96
490.087	401.84
490.449	389.07
490.811	389.07
491.174	343.11
491.536	353.32
491.898	401.84
492.26	442.69
492.622	417.16
492.984	429.93
493.346	363.54
493.708	360.98
494.07	432.48
494.432	465.67
494.794	381.41
495.155	389.07
495.517	386.52
495.879	391.62
496.24	404.39
496.602	447.8
496.963	360.98
497.325	424.82
497.686	422.26
498.048	394.18
498.409	455.46
498.77	488.65
499.131	445.25
499.492	396.73
499.854	338
500.215	322.68
500.576	348.22
500.937	358.43
501.298	383.96
501.658	417.16
502.019	419.71
502.38	371.2
502.741	360.98
503.101	501.42
503.462	399.28
503.823	360.98
504.183	458.01
504.543	422.26
504.904	432.48
505.264	381.41
505.625	355.88
505.985	373.75
506.345	401.84
506.705	335.45
507.065	320.13
507.426	338
507.786	343.11
508.146	360.98
508.505	435.03
508.865	432.48
509.225	452.91
509.585	414.6
509.945	422.26
510.304	353.32
510.664	468.23
511.024	412.05
511.383	429.93
511.743	412.05
512.102	424.82
512.462	389.07
512.821	381.41
513.18	335.45
513.539	458.01
513.899	394.18
514.258	340.56
514.617	432.48
514.976	435.03
515.335	399.28
515.694	368.64
516.053	442.69
516.412	447.8
516.771	383.96
517.129	350.77
517.488	340.56
517.847	401.84
518.205	424.82
518.564	419.71
518.922	401.84
519.281	376.3
519.639	437.59
519.998	343.11
520.356	360.98
520.714	391.62
521.073	378.86
521.431	394.18
521.789	353.32
522.147	355.88
522.505	386.52
522.863	340.56
523.221	378.86
523.579	460.57
523.937	424.82
524.295	414.6
524.652	355.88
525.01	401.84
525.368	406.94
525.725	414.6
526.083	394.18
526.44	378.86
526.798	463.12
527.155	378.86
527.513	363.54
527.87	424.82
528.227	417.16
528.584	468.23
528.942	488.65
529.299	455.46
529.656	332.9
530.013	414.6
530.37	409.5
530.727	435.03
531.083	414.6
531.44	414.6
531.797	394.18
532.154	417.16
532.511	435.03
532.867	363.54
533.224	327.79
533.58	409.5
533.937	343.11
534.293	445.25
534.65	383.96
535.006	396.73
535.362	417.16
535.718	445.25
536.075	435.03
536.431	389.07
536.787	450.35
537.143	409.5
537.499	450.35
537.855	419.71
538.211	376.3
538.567	463.12
538.923	371.2
539.278	406.94
539.634	452.91
539.99	470.78
540.345	381.41
540.701	422.26
541.056	435.03
541.412	396.73
541.767	422.26
542.123	406.94
542.478	396.73
542.833	470.78
543.188	419.71
543.544	391.62
543.899	399.28
544.254	435.03
544.609	427.37
544.964	335.45
545.319	391.62
545.674	401.84
546.029	363.54
546.383	419.71
546.738	338
547.093	350.77
547.447	391.62
547.802	358.43
548.157	366.09
548.511	350.77
548.866	396.73
549.22	376.3
549.574	391.62
549.929	429.93
550.283	371.2
550.637	409.5
550.991	414.6
551.345	427.37
551.699	371.2
552.053	386.52
552.407	366.09
552.761	363.54
553.115	363.54
553.469	437.59
553.823	389.07
554.176	440.14
554.53	378.86
554.884	445.25
555.237	705.69
555.591	422.26
555.944	437.59
556.298	360.98
556.651	404.39
557.005	391.62
557.358	432.48
557.711	394.18
558.064	376.3
558.417	399.28
558.771	478.44
559.124	437.59
559.477	450.35
559.83	409.5
560.182	493.76
560.535	404.39
560.888	440.14
561.241	473.33
561.594	406.94
561.946	396.73
562.299	373.75
562.651	406.94
563.004	381.41
563.356	399.28
563.709	389.07
564.061	389.07
564.413	383.96
564.766	386.52
565.118	350.77
565.47	360.98
565.822	355.88
566.174	419.71
566.526	358.43
566.878	320.13
567.23	350.77
567.582	373.75
567.934	355.88
568.286	427.37
568.638	350.77
568.989	412.05
569.341	419.71
569.693	424.82
570.044	363.54
570.396	452.91
570.747	345.66
571.098	335.45
571.45	455.46
571.801	429.93
572.152	406.94
572.504	435.03
572.855	419.71
573.206	445.25
573.557	371.2
573.908	409.5
574.259	409.5
574.61	437.59
574.961	419.71
575.311	437.59
575.662	335.45
576.013	437.59
576.364	424.82
576.714	437.59
577.065	353.32
577.415	363.54
577.766	394.18
578.116	440.14
578.467	429.93
578.817	440.14
579.167	435.03
579.518	383.96
579.868	381.41
580.218	412.05
580.568	412.05
580.918	389.07
581.268	414.6
581.618	391.62
581.968	417.16
582.318	417.16
582.668	442.69
583.017	435.03
583.367	442.69
583.717	394.18
584.066	307.36
584.416	360.98
584.765	440.14
585.115	401.84
585.464	409.5
585.814	366.09
586.163	386.52
586.512	417.16
586.862	366.09
587.211	355.88
587.56	378.86
587.909	383.96
588.258	373.75
588.607	358.43
588.956	404.39
589.305	401.84
589.654	322.68
590.002	338
590.351	432.48
590.7	419.71
591.048	447.8
591.397	455.46
591.746	406.94
592.094	360.98
592.443	396.73
592.791	389.07
593.139	450.35
593.488	404.39
593.836	396.73
594.184	445.25
594.532	391.62
594.88	422.26
595.228	455.46
595.576	440.14
595.924	429.93
596.272	432.48
596.62	381.41
596.968	424.82
597.316	355.88
597.664	396.73
598.011	422.26
598.359	376.3
598.706	383.96
599.054	394.18
599.402	394.18
599.749	376.3
600.096	378.86
600.444	435.03
600.791	378.86
601.138	409.5
601.485	414.6
601.833	406.94
602.18	394.18
602.527	417.16
602.874	371.2
603.221	399.28
603.568	440.14
603.914	465.67
604.261	409.5
604.608	345.66
604.955	406.94
605.301	335.45
605.648	383.96
605.995	391.62
606.341	389.07
606.688	394.18
607.034	440.14
607.38	389.07
607.727	468.23
608.073	381.41
608.419	404.39
608.765	473.33
609.112	401.84
609.458	394.18
609.804	417.16
610.15	419.71
610.496	386.52
610.842	396.73
611.187	322.68
611.533	394.18
611.879	412.05
612.225	394.18
612.57	440.14
612.916	343.11
613.261	338
613.607	345.66
613.952	363.54
614.298	432.48
614.643	440.14
614.989	381.41
615.334	440.14
615.679	419.71
616.024	427.37
616.369	355.88
616.714	381.41
617.059	452.91
617.404	417.16
617.749	409.5
618.094	429.93
618.439	381.41
618.784	376.3
619.129	358.43
619.473	386.52
619.818	412.05
620.163	366.09
620.507	383.96
620.852	386.52
621.196	373.75
621.54	371.2
621.885	368.64
622.229	394.18
622.573	414.6
622.918	399.28
623.262	422.26
623.606	325.24
623.95	394.18
624.294	368.64
624.638	427.37
624.982	350.77
625.326	419.71
625.67	429.93
626.013	437.59
626.357	424.82
626.701	391.62
627.044	335.45
627.388	417.16
627.731	414.6
628.075	409.5
628.418	345.66
628.762	358.43
629.105	332.9
629.448	383.96
629.792	371.2
630.135	363.54
630.478	371.2
630.821	394.18
631.164	450.35
631.507	376.3
631.85	358.43
632.193	422.26
632.536	424.82
632.879	432.48
633.221	383.96
633.564	366.09
633.907	396.73
634.249	368.64
634.592	432.48
634.935	440.14
635.277	455.46
635.619	414.6
635.962	381.41
636.304	345.66
636.646	427.37
636.989	399.28
637.331	399.28
637.673	340.56
638.015	383.96
638.357	414.6
638.699	386.52
639.041	406.94
639.383	386.52
639.725	378.86
640.067	419.71
640.408	358.43
640.75	353.32
641.092	389.07
641.433	355.88
641.775	355.88
642.116	406.94
642.458	475.89
642.799	345.66
643.141	455.46
643.482	378.86
643.823	419.71
644.164	450.35
644.506	470.78
644.847	424.82
645.188	386.52
645.529	417.16
645.87	406.94
646.211	345.66
646.552	399.28
646.893	409.5
647.233	343.11
647.574	404.39
647.915	394.18
648.255	345.66
648.596	360.98
648.937	404.39
649.277	399.28
649.618	343.11
649.958	368.64
650.298	412.05
650.639	327.79
650.979	335.45
651.319	312.47
651.659	376.3
651.999	340.56
652.339	437.59
652.679	373.75
653.019	445.25
653.359	389.07
653.699	422.26
654.039	373.75
654.379	404.39
654.719	378.86
655.058	355.88
655.398	458.01
655.737	440.14
656.077	414.6
656.416	422.26
656.756	363.54
657.095	373.75
657.435	396.73
657.774	327.79
658.113	376.3
658.452	445.25
658.792	394.18
659.131	302.26
659.47	406.94
659.809	440.14
660.148	419.71
660.487	414.6
660.826	332.9
661.164	383.96
661.503	340.56
661.842	406.94
662.181	327.79
662.519	409.5
662.858	419.71
663.196	371.2
663.535	399.28
663.873	437.59
664.212	437.59
664.55	381.41
664.888	376.3
665.226	406.94
665.565	358.43
665.903	613.77
666.241	447.8
666.579	409.5
666.917	440.14
667.255	427.37
667.593	386.52
667.931	419.71
668.268	396.73
668.606	417.16
668.944	343.11
669.282	440.14
669.619	396.73
669.957	378.86
670.294	363.54
670.632	378.86
670.969	401.84
671.307	394.18
671.644	437.59
671.981	419.71
672.318	473.33
672.656	442.69
672.993	358.43
673.33	373.75
673.667	422.26
674.004	381.41
674.341	422.26
674.678	391.62
675.015	404.39
675.351	493.76
675.688	422.26
676.025	350.77
676.362	386.52
676.698	404.39
677.035	401.84
677.371	417.16
677.708	437.59
678.044	414.6
678.38	378.86
678.717	401.84
679.053	404.39
679.389	429.93
679.725	414.6
680.062	437.59
680.398	360.98
680.734	353.32
681.07	401.84
681.406	368.64
681.742	404.39
682.077	350.77
682.413	383.96
682.749	350.77
683.085	381.41
683.42	373.75
683.756	406.94
684.091	414.6
684.427	452.91
684.762	432.48
685.098	317.58
685.433	414.6
685.768	353.32
686.104	417.16
686.439	360.98
686.774	340.56
687.109	373.75
687.444	399.28
687.779	317.58
688.114	340.56
688.449	376.3
688.784	399.28
689.119	381.41
689.454	401.84
689.789	366.09
690.123	383.96
690.458	391.62
690.792	391.62
691.127	345.66
691.461	363.54
691.796	424.82
692.13	406.94
692.465	304.81
692.799	373.75
693.133	373.75
693.467	353.32
693.802	373.75
694.136	373.75
694.47	348.22
694.804	338
695.138	358.43
695.472	414.6
695.806	353.32
696.139	381.41
696.473	432.48
696.807	386.52
697.141	363.54
697.474	404.39
697.808	401.84
698.141	406.94
698.475	358.43
698.808	383.96
699.142	353.32
699.475	391.62
699.808	450.35
700.142	350.77
700.475	358.43
700.808	378.86
701.141	391.62
701.474	371.2
701.807	406.94
702.14	406.94
702.473	366.09
702.806	366.09
703.139	376.3
703.472	389.07
703.804	343.11
704.137	389.07
704.47	475.89
704.802	383.96
705.135	366.09
705.467	450.35
705.8	417.16
706.132	414.6
706.464	399.28
706.797	409.5
707.129	345.66
707.461	465.67
707.793	378.86
708.125	391.62
708.457	320.13
708.789	399.28
709.121	383.96
709.453	345.66
709.785	335.45
710.117	412.05
710.449	401.84
710.781	383.96
711.112	419.71
711.444	435.03
711.775	406.94
712.107	422.26
712.438	414.6
712.77	396.73
713.101	399.28
713.433	389.07
713.764	422.26
714.095	435.03
714.426	419.71
714.757	447.8
715.089	412.05
715.42	437.59
715.751	383.96
716.082	401.84
716.412	414.6
716.743	315.02
717.074	414.6
717.405	414.6
717.736	366.09
718.066	409.5
718.397	409.5
718.727	455.46
719.058	399.28
719.388	389.07
719.719	371.2
720.049	381.41
720.38	399.28
720.71	437.59
721.04	396.73
721.37	376.3
721.7	412.05
722.031	345.66
722.361	332.9
722.691	363.54
723.021	348.22
723.35	401.84
723.68	389.07
724.01	440.14
724.34	394.18
724.67	412.05
724.999	381.41
725.329	447.8
725.658	366.09
725.988	358.43
726.317	412.05
726.647	442.69
726.976	353.32
727.306	399.28
727.635	371.2
727.964	335.45
728.293	417.16
728.622	373.75
728.952	396.73
729.281	422.26
729.61	368.64
729.939	383.96
730.267	302.26
730.596	312.47
730.925	366.09
731.254	381.41
731.583	414.6
731.911	419.71
732.24	358.43
732.568	389.07
732.897	325.24
733.225	358.43
733.554	406.94
733.882	386.52
734.21	447.8
734.539	368.64
734.867	401.84
735.195	389.07
735.523	404.39
735.851	394.18
736.179	422.26
736.507	417.16
736.835	345.66
737.163	348.22
737.491	394.18
737.819	366.09
738.147	297.15
738.474	353.32
738.802	412.05
739.13	373.75
739.457	348.22
739.785	396.73
740.112	363.54
740.44	371.2
740.767	394.18
741.094	371.2
741.422	363.54
741.749	394.18
742.076	376.3
742.403	373.75
742.73	396.73
743.057	383.96
743.384	399.28
743.711	348.22
744.038	429.93
744.365	450.35
744.692	348.22
745.018	422.26
745.345	391.62
745.672	360.98
745.998	376.3
746.325	376.3
746.651	366.09
746.978	366.09
747.304	412.05
747.631	378.86
747.957	378.86
748.283	445.25
748.61	404.39
748.936	320.13
749.262	376.3
749.588	412.05
749.914	358.43
750.24	409.5
750.566	396.73
750.892	383.96
751.218	406.94
751.543	412.05
751.869	401.84
752.195	338
752.521	368.64
752.846	368.64
753.172	386.52
753.497	345.66
753.823	355.88
754.148	360.98
754.473	315.02
754.799	414.6
755.124	363.54
755.449	455.46
755.774	417.16
756.1	399.28
756.425	348.22
756.75	332.9
757.075	378.86
757.4	506.53
757.724	355.88
758.049	284.38
758.374	353.32
758.699	335.45
759.024	332.9
759.348	343.11
759.673	440.14
759.997	440.14
760.322	353.32
760.646	373.75
760.971	404.39
761.295	406.94
761.619	391.62
761.944	368.64
762.268	394.18
762.592	368.64
762.916	409.5
763.24	366.09
763.564	376.3
763.888	480.99
764.212	473.33
764.536	458.01
764.86	552.49
765.184	557.59
765.508	483.55
765.831	422.26
766.155	695.48
766.478	544.83
766.802	496.31
767.126	519.29
767.449	534.61
767.772	621.43
768.096	631.64
768.419	603.55
768.742	598.45
769.066	580.57
769.389	572.91
769.712	572.91
770.035	646.96
770.358	644.41
770.681	731.22
771.004	728.67
771.327	754.2
771.65	698.03
771.972	759.31
772.295	741.44
772.618	774.63
772.941	766.97
773.263	856.34
773.586	841.02
773.908	966.13
774.231	925.28
774.553	973.79
774.875	1063.16
775.198	1055.5
775.52	1012.1
775.842	1012.1
776.164	912.51
776.487	1004.44
776.809	1060.61
777.131	1050.4
777.453	1075.93
777.775	1009.54
778.096	1178.06
778.418	1180.62
778.74	1221.47
779.062	1065.72
779.384	1155.08
779.705	1326.16
780.027	1461.49
780.348	1441.06
780.67	1346.59
780.991	1591.71
781.313	1624.91
781.634	1627.46
781.955	1571.28
782.277	1558.52
782.598	1614.69
782.919	1474.26
783.24	1515.11
783.561	1665.76
783.882	1670.87
784.203	1663.21
784.524	1566.18
784.845	1688.74
785.166	1673.42
785.487	1619.8
785.807	1614.69
786.128	1637.67
786.449	1622.35
786.769	1696.4
787.09	1921.1
787.41	2066.64
787.731	2127.92
788.051	2304.1
788.372	2301.55
788.692	2357.73
789.012	2332.19
789.332	2224.95
789.653	2339.85
789.973	2592.64
790.293	2498.16
790.613	2189.2
790.933	2232.61
791.253	2286.23
791.573	2247.93
791.893	2283.68
792.212	2311.76
792.532	2201.97
792.852	2166.22
793.171	2071.75
793.491	2033.45
793.811	1964.51
794.13	2002.81
794.45	1836.84
794.769	1767.9
795.088	1857.26
795.408	1678.53
795.727	1867.48
796.046	1895.56
796.365	1857.26
796.684	1752.57
797.004	1755.13
797.323	1961.95
797.642	2380.71
797.96	2452.2
798.279	2401.13
798.598	2237.72
798.917	2270.91
799.236	2153.46
799.554	2020.68
799.873	2000.25
800.192	2112.6
800.51	2204.52
800.829	2053.87
801.147	1987.49
801.466	1824.07
801.784	1890.46
802.102	1915.99
802.421	2051.32
802.739	2273.46
803.057	2125.37
803.375	1928.76
803.693	1961.95
804.011	2319.42
804.329	2396.03
804.647	2316.87
804.965	2201.97
805.283	2138.13
805.601	2025.79
805.918	1849.6
806.236	1681.08
806.554	1732.15
806.871	1806.2
807.189	1974.72
807.507	2076.85
807.824	1956.85
808.141	1798.54
808.459	1645.33
808.776	1535.54
809.093	1392.55
809.411	1410.42
809.728	1448.72
810.045	1387.44
810.362	1361.91
810.679	1458.94
810.996	1412.98
811.313	1369.57
811.63	1384.89
811.947	1336.37
812.264	1303.18
812.58	1326.16
812.897	1295.52
813.214	1323.61
813.53	1241.9
813.847	1364.46
814.163	1241.9
814.48	1282.75
814.796	1257.22
815.113	1247.01
815.429	1134.66
815.745	1129.55
816.061	1124.44
816.378	1106.57
816.694	1050.4
817.01	1070.82
817.326	1134.66
817.642	1116.78
817.958	1050.4
818.274	899.75
818.59	950.81
818.905	938.05
819.221	927.83
819.537	950.81
819.852	943.15
820.168	922.73
820.484	981.45
820.799	899.75
821.115	861.45
821.43	830.81
821.745	835.91
822.061	876.77
822.376	805.27
822.691	774.63
823.006	820.59
823.322	879.32
823.637	818.04
823.952	761.86
824.267	715.9
824.582	815.49
824.897	779.74
825.211	789.95
825.526	777.18
825.841	687.82
826.156	690.37
826.47	728.67
826.785	692.92
827.1	764.42
827.414	698.03
827.729	634.2
828.043	738.88
828.357	715.9
828.672	608.66
828.986	652.07
829.3	682.71
829.614	606.11
829.929	621.43
830.243	516.74
830.557	516.74
830.871	537.17
831.185	493.76
831.499	486.1
831.812	557.59
832.126	583.13
832.44	567.81
832.754	595.89
833.067	578.02
833.381	552.49
833.695	560.15
834.008	511.63
834.322	565.25
834.635	547.38
834.948	580.57
835.262	634.2
835.575	509.08
835.888	549.93
836.201	475.89
836.515	547.38
836.828	524.4
837.141	480.99
837.454	445.25
837.767	511.63
838.08	496.31
838.392	503.97
838.705	432.48
839.018	532.06
839.331	463.12
839.643	424.82
839.956	396.73
840.269	355.88
840.581	386.52
840.894	437.59
841.206	450.35
841.519	562.7
841.831	465.67
842.143	470.78
842.455	460.57
842.768	412.05
843.08	417.16
843.392	419.71
843.704	498.87
844.016	427.37
844.328	401.84
844.64	368.64
844.952	417.16
845.263	414.6
845.575	450.35
845.887	427.37
846.199	422.26
846.51	465.67
846.822	435.03
847.133	396.73
847.445	338
847.756	432.48
848.068	394.18
848.379	343.11
848.69	378.86
849.002	412.05
849.313	360.98
849.624	373.75
849.935	383.96
850.246	381.41
850.557	417.16
850.868	412.05
851.179	419.71
851.49	404.39
851.801	391.62
852.112	424.82
852.422	401.84
852.733	360.98
853.044	404.39
853.354	396.73
853.665	399.28
853.975	427.37
854.286	478.44
854.596	414.6
854.906	399.28
855.217	386.52
855.527	389.07
855.837	455.46
856.147	475.89
856.458	406.94
856.768	424.82
857.078	422.26
857.388	389.07
857.698	322.68
858.007	338
858.317	378.86
858.627	422.26
858.937	345.66
859.246	353.32
859.556	391.62
859.866	360.98
860.175	417.16
860.485	399.28
860.794	399.28
861.104	340.56
861.413	345.66
861.722	332.9
862.032	360.98
862.341	376.3
862.65	355.88
862.959	338
863.268	424.82
863.577	371.2
863.886	363.54
864.195	363.54
864.504	391.62
864.813	317.58
865.122	340.56
865.43	465.67
865.739	373.75
866.048	376.3
866.356	442.69
866.665	406.94
866.973	399.28
867.282	450.35
867.59	399.28
867.899	315.02
868.207	363.54
868.515	376.3
868.823	432.48
869.132	330.34
869.44	368.64
869.748	358.43
870.056	307.36
870.364	396.73
870.672	386.52
870.98	412.05
871.288	360.98
871.595	417.16
871.903	435.03
872.211	404.39
872.518	488.65
872.826	478.44
873.134	322.68
873.441	378.86
873.749	383.96
874.056	348.22
874.363	353.32
874.671	343.11
874.978	345.66
875.285	322.68
875.592	345.66
875.9	435.03
876.207	363.54
876.514	368.64
876.821	429.93
877.128	394.18
877.435	435.03
877.741	378.86
878.048	355.88
878.355	381.41
878.662	322.68
878.968	363.54
879.275	371.2
879.582	338
879.888	371.2
880.195	363.54
880.501	358.43
880.807	417.16
881.114	294.6
881.42	320.13
881.726	343.11
882.032	371.2
882.339	317.58
882.645	419.71
882.951	320.13
883.257	394.18
883.563	355.88
883.869	391.62
884.174	366.09
884.48	391.62
884.786	317.58
885.092	404.39
885.397	386.52
885.703	399.28
886.009	422.26
886.314	406.94
886.62	373.75
886.925	373.75
887.231	350.77
887.536	355.88
887.841	409.5
888.146	368.64
888.452	429.93
888.757	437.59
889.062	419.71
889.367	417.16
889.672	360.98
889.977	366.09
890.282	343.11
890.587	391.62
890.892	317.58
891.196	345.66
891.501	338
891.806	327.79
892.11	325.24
892.415	473.33
892.72	465.67
893.024	371.2
893.328	406.94
893.633	414.6
893.937	447.8
894.242	399.28
894.546	335.45
894.85	378.86
895.154	404.39
895.458	332.9
895.762	360.98
896.066	363.54
896.37	396.73
896.674	424.82
896.978	399.28
897.282	401.84
897.586	373.75
897.89	317.58
898.193	389.07
898.497	412.05
898.801	473.33
899.104	378.86
899.408	406.94
899.711	355.88
900.014	406.94
900.318	401.84
900.621	417.16
900.924	363.54
901.228	378.86
901.531	373.75
901.834	396.73
902.137	338
902.44	368.64
902.743	360.98
903.046	348.22
903.349	363.54
903.652	396.73
903.955	366.09
904.257	381.41
904.56	412.05
904.863	399.28
905.165	353.32
905.468	409.5
905.77	371.2
906.073	335.45
906.375	366.09
906.678	414.6
906.98	325.24
907.282	371.2
907.584	389.07
907.887	378.86
908.189	399.28
908.491	409.5
908.793	401.84
909.095	355.88
909.397	396.73
909.699	360.98
910.001	366.09
910.302	366.09
910.604	383.96
910.906	383.96
911.208	376.3
911.509	363.54
911.811	455.46
912.112	368.64
912.414	389.07
912.715	409.5
913.017	322.68
913.318	363.54
913.619	360.98
913.92	345.66
914.222	386.52
914.523	322.68
914.824	399.28
915.125	371.2
915.426	399.28
915.727	383.96
916.028	414.6
916.329	350.77
916.63	371.2
916.93	412.05
917.231	414.6
917.532	368.64
917.832	371.2
918.133	371.2
918.434	381.41
918.734	312.47
919.034	376.3
919.335	366.09
919.635	366.09
919.935	315.02
920.236	368.64
920.536	338
920.836	317.58
921.136	332.9
921.436	475.89
921.736	345.66
922.036	345.66
922.336	355.88
922.636	394.18
922.936	368.64
923.236	312.47
923.535	404.39
923.835	394.18
924.135	327.79
924.434	350.77
924.734	363.54
925.033	429.93
925.333	312.47
925.632	355.88
925.932	325.24
926.231	378.86
926.53	350.77
926.83	383.96
927.129	404.39
927.428	383.96
927.727	376.3
928.026	345.66
928.325	343.11
928.624	378.86
928.923	368.64
929.222	368.64
929.52	394.18
929.819	389.07
930.118	401.84
930.417	376.3
930.715	345.66
931.014	435.03
931.312	432.48
931.611	371.2
931.909	373.75
932.207	399.28
932.506	404.39
932.804	355.88
933.102	345.66
933.401	399.28
933.699	335.45
933.997	322.68
934.295	419.71
934.593	389.07
934.891	432.48
935.189	404.39
935.487	435.03
935.784	366.09
936.082	376.3
936.38	412.05
936.677	338
936.975	338
937.273	312.47
937.57	332.9
937.868	376.3
938.165	315.02
938.463	350.77
938.76	327.79
939.057	404.39
939.354	348.22
939.652	383.96
939.949	406.94
940.246	350.77
940.543	409.5
940.84	371.2
941.137	353.32
941.434	383.96
941.731	345.66
942.028	325.24
942.324	345.66
942.621	440.14
942.918	373.75
943.214	414.6
943.511	373.75
943.807	363.54
944.104	386.52
944.4	373.75
944.697	429.93
944.993	363.54
945.29	322.68
945.586	419.71
945.882	348.22
946.178	447.8
946.474	399.28
946.77	348.22
947.066	406.94
947.362	406.94
947.658	383.96
947.954	366.09
948.25	345.66
948.546	378.86
948.842	378.86
949.137	343.11
949.433	378.86
949.729	297.15
950.024	345.66
950.32	350.77
950.615	419.71
950.91	371.2
951.206	366.09
951.501	389.07
951.796	442.69
952.092	381.41
952.387	386.52
952.682	389.07
952.977	330.34
953.272	381.41
953.567	412.05
953.862	343.11
954.157	376.3
954.452	320.13
954.747	371.2
955.041	458.01
955.336	383.96
955.631	378.86
955.925	401.84
956.22	320.13
956.514	368.64
956.809	348.22
957.103	350.77
957.398	366.09
957.692	386.52
957.986	330.34
958.281	412.05
958.575	437.59
958.869	435.03
959.163	348.22
959.457	401.84
959.751	386.52
960.045	378.86
960.339	373.75
960.633	345.66
960.927	442.69
961.221	394.18
961.514	381.41
961.808	383.96
962.102	389.07
962.395	376.3
962.689	363.54
962.982	422.26
963.276	389.07
963.569	412.05
963.862	394.18
964.156	363.54
964.449	381.41
964.742	355.88
965.035	391.62
965.328	414.6
965.622	358.43
965.915	386.52
966.208	389.07
966.5	422.26
966.793	414.6
967.086	442.69
967.379	450.35
967.672	391.62
967.964	366.09
968.257	435.03
968.55	396.73
968.842	366.09
969.135	422.26
969.427	378.86
969.72	353.32
970.012	353.32
970.304	424.82
970.597	366.09
970.889	360.98
971.181	327.79
971.473	373.75
971.765	383.96
972.057	332.9
972.349	396.73
972.641	417.16
972.933	399.28
973.225	409.5
973.517	450.35
973.809	338
974.1	373.75
974.392	376.3
974.684	396.73
974.975	427.37
975.267	350.77
975.558	353.32
975.85	353.32
976.141	399.28
976.432	383.96
976.724	315.02
977.015	317.58
977.306	383.96
977.597	386.52
977.888	307.36
978.179	373.75
978.47	355.88
978.761	327.79
979.052	389.07
979.343	345.66
979.634	404.39
979.925	343.11
980.215	473.33
980.506	437.59
980.797	445.25
981.087	424.82
981.378	419.71
981.668	355.88
981.959	389.07
982.249	429.93
982.54	450.35
982.83	412.05
983.12	358.43
983.41	391.62
983.701	391.62
983.991	391.62
984.281	340.56
984.571	432.48
984.861	340.56
985.151	401.84
985.441	417.16
985.73	381.41
986.02	396.73
986.31	355.88
986.6	417.16
986.889	358.43
987.179	371.2
987.469	383.96
987.758	353.32
988.048	358.43
988.337	355.88
988.626	371.2
988.916	394.18
989.205	348.22
989.494	371.2
989.783	389.07
990.073	391.62
990.362	389.07
990.651	412.05
990.94	371.2
991.229	442.69
991.518	401.84
991.806	345.66
992.095	360.98
992.384	437.59
992.673	340.56
992.961	315.02
993.25	363.54
993.539	345.66
993.827	399.28
994.116	376.3
994.404	348.22
994.692	440.14
994.981	455.46
995.269	376.3
995.557	394.18
995.846	350.77
996.134	345.66
996.422	358.43
996.71	399.28
996.998	348.22
997.286	412.05
997.574	358.43
997.862	422.26
998.15	396.73
998.437	360.98
998.725	386.52
999.013	427.37
999.3	468.23
999.588	327.79
999.876	427.37
1000.163	383.96
1000.45	368.64
1000.738	414.6
1001.025	350.77
1001.313	317.58
1001.6	383.96
1001.887	386.52
1002.174	353.32
1002.461	360.98
1002.748	386.52
1003.036	399.28
1003.322	404.39
1003.609	317.58
1003.896	340.56
1004.183	409.5
1004.47	345.66
1004.757	378.86
1005.043	427.37
1005.33	412.05
1005.617	335.45
1005.903	363.54
1006.19	330.34
1006.476	266.51
1006.763	340.56
1007.049	348.22
1007.335	322.68
1007.622	350.77
1007.908	381.41
1008.194	376.3
1008.48	417.16
1008.766	383.96
1009.053	381.41
1009.339	376.3
1009.625	373.75
1009.91	373.75
1010.196	378.86
1010.482	345.66
1010.768	373.75
1011.054	378.86
1011.339	343.11
1011.625	335.45
1011.911	353.32
1012.196	368.64
1012.482	289.49
1012.767	322.68
1013.052	404.39
1013.338	358.43
1013.623	376.3
1013.908	371.2
1014.194	378.86
1014.479	368.64
1014.764	417.16
1015.049	394.18
1015.334	376.3
1015.619	360.98
1015.904	442.69
1016.189	363.54
1016.474	312.47
1016.758	399.28
1017.043	381.41
1017.328	381.41
1017.613	348.22
1017.897	327.79
1018.182	325.24
1018.466	325.24
1018.751	396.73
1019.035	422.26
1019.32	386.52
1019.604	419.71
1019.888	338
1020.172	338
1020.457	338
