Data from 2025-12-03_xpw_interference_micrometer_634_reference_FLMS141361__40__490.txt Node

Date: Wed Dec 03 15:52:23 MST 2025
User: james
Spectrometer: FLMS14136
Trigger mode: 0
Integration Time (sec): 1.000000E-1
Scans to average: 1
Electric dark correction enabled: true
Nonlinearity correction enabled: false
Boxcar width: 0
XAxis mode: Wavelengths
Number of Pixels in Spectrum: 2048
>>>>>Begin Spectral Data<<<<<
339.315	-7.66
339.697	-7.66
340.079	-7.66
340.461	-71.49
340.843	-45.96
341.225	-79.15
341.607	-53.62
341.989	-112.35
342.371	-71.49
342.752	-68.94
343.134	7.66
343.516	-76.6
343.897	-40.85
344.279	25.53
344.661	17.87
345.042	35.75
345.423	38.3
345.805	25.53
346.186	68.94
346.567	127.67
346.949	155.76
347.33	178.74
347.711	201.72
348.092	137.88
348.473	252.78
348.854	237.46
349.235	273.21
349.616	311.51
349.997	314.07
350.378	352.37
350.758	319.17
351.139	321.73
351.52	273.21
351.9	321.73
352.281	380.45
352.661	390.67
353.042	370.24
353.422	372.79
353.803	390.67
354.183	308.96
354.563	400.88
354.943	400.88
355.324	446.84
355.704	390.67
356.084	370.24
356.464	365.13
356.844	472.37
357.224	454.5
357.603	370.24
357.983	441.73
358.363	423.86
358.743	400.88
359.122	334.49
359.502	339.6
359.882	329.39
360.261	314.07
360.641	385.56
361.02	362.58
361.399	426.41
361.779	395.77
362.158	347.26
362.537	367.69
362.916	365.13
363.296	367.69
363.675	352.37
364.054	337.05
364.433	377.9
364.812	347.26
365.19	306.41
365.569	405.99
365.948	362.58
366.327	326.83
366.705	275.76
367.084	398.33
367.463	291.09
367.841	334.49
368.22	326.83
368.598	408.54
368.977	342.15
369.355	344.71
369.733	347.26
370.111	347.26
370.49	291.09
370.868	324.28
371.246	337.05
371.624	388.11
372.002	383.01
372.38	375.35
372.758	357.47
373.136	352.37
373.513	377.9
373.891	385.56
374.269	280.87
374.646	357.47
375.024	385.56
375.402	383.01
375.779	403.43
376.157	314.07
376.534	367.69
376.911	403.43
377.289	380.45
377.666	354.92
378.043	255.34
378.42	423.86
378.797	329.39
379.175	334.49
379.552	388.11
379.929	413.65
380.305	431.52
380.682	395.77
381.059	337.05
381.436	337.05
381.813	365.13
382.189	375.35
382.566	347.26
382.943	337.05
383.319	367.69
383.696	347.26
384.072	352.37
384.448	337.05
384.825	352.37
385.201	377.9
385.577	372.79
385.953	354.92
386.329	372.79
386.706	334.49
387.082	413.65
387.458	375.35
387.834	393.22
388.209	385.56
388.585	362.58
388.961	324.28
389.337	352.37
389.713	400.88
390.088	408.54
390.464	385.56
390.839	326.83
391.215	375.35
391.59	375.35
391.966	367.69
392.341	331.94
392.716	357.47
393.092	342.15
393.467	403.43
393.842	311.51
394.217	349.81
394.592	321.73
394.967	308.96
395.342	349.81
395.717	370.24
396.092	329.39
396.467	329.39
396.841	462.16
397.216	370.24
397.591	411.09
397.965	426.41
398.34	375.35
398.714	298.75
399.089	339.6
399.463	354.92
399.838	316.62
400.212	408.54
400.586	360.03
400.961	405.99
401.335	393.22
401.709	418.75
402.083	321.73
402.457	324.28
402.831	377.9
403.205	375.35
403.579	418.75
403.953	375.35
404.326	367.69
404.7	316.62
405.074	408.54
405.447	377.9
405.821	316.62
406.195	372.79
406.568	403.43
406.942	490.25
407.315	454.5
407.688	398.33
408.062	370.24
408.435	390.67
408.808	321.73
409.181	344.71
409.554	423.86
409.927	370.24
410.3	431.52
410.673	360.03
411.046	449.39
411.419	421.31
411.792	405.99
412.165	436.63
412.537	365.13
412.91	357.47
413.283	344.71
413.655	347.26
414.028	408.54
414.4	423.86
414.773	423.86
415.145	459.61
415.517	377.9
415.889	383.01
416.262	339.6
416.634	365.13
417.006	372.79
417.378	403.43
417.75	385.56
418.122	395.77
418.494	444.29
418.866	416.2
419.238	349.81
419.609	326.83
419.981	423.86
420.353	416.2
420.725	423.86
421.096	395.77
421.468	347.26
421.839	395.77
422.211	347.26
422.582	370.24
422.953	362.58
423.325	418.75
423.696	393.22
424.067	388.11
424.438	400.88
424.809	385.56
425.18	418.75
425.551	436.63
425.922	428.97
426.293	380.45
426.664	398.33
427.035	459.61
427.406	393.22
427.776	423.86
428.147	431.52
428.518	393.22
428.888	352.37
429.259	308.96
429.629	426.41
429.999	431.52
430.37	405.99
430.74	411.09
431.11	411.09
431.481	377.9
431.851	405.99
432.221	352.37
432.591	431.52
432.961	370.24
433.331	449.39
433.701	372.79
434.071	375.35
434.441	400.88
434.81	395.77
435.18	398.33
435.55	426.41
435.919	454.5
436.289	411.09
436.658	418.75
437.028	439.18
437.397	377.9
437.767	462.16
438.136	385.56
438.505	342.15
438.875	383.01
439.244	408.54
439.613	385.56
439.982	342.15
440.351	385.56
440.72	441.73
441.089	403.43
441.458	393.22
441.827	395.77
442.196	413.65
442.564	482.59
442.933	411.09
443.302	426.41
443.67	403.43
444.039	390.67
444.407	390.67
444.776	436.63
445.144	393.22
445.513	370.24
445.881	390.67
446.249	416.2
446.617	444.29
446.986	365.13
447.354	385.56
447.722	339.6
448.09	388.11
448.458	405.99
448.826	474.93
449.194	357.47
449.561	421.31
449.929	495.36
450.297	377.9
450.665	395.77
451.032	423.86
451.4	431.52
451.767	405.99
452.135	388.11
452.502	403.43
452.87	400.88
453.237	395.77
453.604	439.18
453.971	393.22
454.339	431.52
454.706	457.05
455.073	423.86
455.44	398.33
455.807	467.27
456.174	446.84
456.541	428.97
456.908	395.77
457.274	418.75
457.641	485.14
458.008	398.33
458.374	418.75
458.741	393.22
459.108	428.97
459.474	451.95
459.841	418.75
460.207	413.65
460.573	395.77
460.94	352.37
461.306	416.2
461.672	362.58
462.038	344.71
462.404	464.71
462.771	375.35
463.137	316.62
463.503	451.95
463.868	428.97
464.234	431.52
464.6	408.54
464.966	377.9
465.332	416.2
465.697	434.07
466.063	467.27
466.429	449.39
466.794	388.11
467.16	459.61
467.525	349.81
467.89	393.22
468.256	444.29
468.621	434.07
468.986	474.93
469.351	380.45
469.717	370.24
470.082	400.88
470.447	431.52
470.812	482.59
471.177	477.48
471.542	426.41
471.906	436.63
472.271	451.95
472.636	441.73
473.001	408.54
473.365	393.22
473.73	403.43
474.094	375.35
474.459	446.84
474.823	474.93
475.188	446.84
475.552	380.45
475.917	383.01
476.281	423.86
476.645	354.92
477.009	398.33
477.373	436.63
477.737	344.71
478.101	405.99
478.465	408.54
478.829	398.33
479.193	383.01
479.557	423.86
479.921	464.71
480.284	423.86
480.648	383.01
481.012	457.05
481.375	385.56
481.739	416.2
482.102	385.56
482.466	421.31
482.829	459.61
483.193	408.54
483.556	413.65
483.919	367.69
484.282	431.52
484.645	454.5
485.009	403.43
485.372	400.88
485.735	408.54
486.098	426.41
486.46	426.41
486.823	385.56
487.186	360.03
487.549	372.79
487.912	454.5
488.274	367.69
488.637	388.11
488.999	339.6
489.362	431.52
489.724	451.95
490.087	449.39
490.449	372.79
490.811	385.56
491.174	375.35
491.536	436.63
491.898	398.33
492.26	503.02
492.622	398.33
492.984	413.65
493.346	326.83
493.708	393.22
494.07	411.09
494.432	362.58
494.794	385.56
495.155	403.43
495.517	462.16
495.879	411.09
496.24	462.16
496.602	413.65
496.963	405.99
497.325	380.45
497.686	411.09
498.048	411.09
498.409	426.41
498.77	342.15
499.131	395.77
499.492	380.45
499.854	344.71
500.215	434.07
500.576	416.2
500.937	331.94
501.298	380.45
501.658	413.65
502.019	385.56
502.38	352.37
502.741	360.03
503.101	354.92
503.462	426.41
503.823	485.14
504.183	446.84
504.543	426.41
504.904	362.58
505.264	357.47
505.625	436.63
505.985	413.65
506.345	372.79
506.705	344.71
507.065	423.86
507.426	372.79
507.786	390.67
508.146	431.52
508.505	495.36
508.865	431.52
509.225	385.56
509.585	472.37
509.945	462.16
510.304	365.13
510.664	416.2
511.024	408.54
511.383	441.73
511.743	385.56
512.102	418.75
512.462	398.33
512.821	388.11
513.18	446.84
513.539	439.18
513.899	408.54
514.258	342.15
514.617	428.97
514.976	439.18
515.335	439.18
515.694	485.14
516.053	446.84
516.412	388.11
516.771	449.39
517.129	362.58
517.488	375.35
517.847	418.75
518.205	388.11
518.564	444.29
518.922	431.52
519.281	444.29
519.639	388.11
519.998	469.82
520.356	360.03
520.714	395.77
521.073	385.56
521.431	439.18
521.789	388.11
522.147	349.81
522.505	408.54
522.863	408.54
523.221	383.01
523.579	383.01
523.937	395.77
524.295	388.11
524.652	413.65
525.01	431.52
525.368	467.27
525.725	408.54
526.083	434.07
526.44	400.88
526.798	421.31
527.155	393.22
527.513	403.43
527.87	390.67
528.227	426.41
528.584	395.77
528.942	344.71
529.299	441.73
529.656	395.77
530.013	454.5
530.37	398.33
530.727	357.47
531.083	467.27
531.44	474.93
531.797	477.48
532.154	434.07
532.511	398.33
532.867	403.43
533.224	365.13
533.58	485.14
533.937	375.35
534.293	444.29
534.65	411.09
535.006	398.33
535.362	395.77
535.718	428.97
536.075	421.31
536.431	441.73
536.787	413.65
537.143	423.86
537.499	326.83
537.855	400.88
538.211	411.09
538.567	395.77
538.923	411.09
539.278	403.43
539.634	365.13
539.99	360.03
540.345	403.43
540.701	462.16
541.056	462.16
541.412	495.36
541.767	370.24
542.123	400.88
542.478	416.2
542.833	385.56
543.188	411.09
543.544	411.09
543.899	431.52
544.254	383.01
544.609	393.22
544.964	395.77
545.319	411.09
545.674	395.77
546.029	426.41
546.383	436.63
546.738	480.04
547.093	436.63
547.447	439.18
547.802	439.18
548.157	439.18
548.511	444.29
548.866	408.54
549.22	439.18
549.574	459.61
549.929	398.33
550.283	421.31
550.637	444.29
550.991	398.33
551.345	362.58
551.699	454.5
552.053	405.99
552.407	457.05
552.761	383.01
553.115	436.63
553.469	472.37
553.823	480.04
554.176	383.01
554.53	365.13
554.884	398.33
555.237	661.32
555.591	500.46
555.944	477.48
556.298	393.22
556.651	449.39
557.005	459.61
557.358	403.43
557.711	449.39
558.064	462.16
558.417	444.29
558.771	428.97
559.124	436.63
559.477	418.75
559.83	375.35
560.182	400.88
560.535	449.39
560.888	388.11
561.241	413.65
561.594	474.93
561.946	451.95
562.299	413.65
562.651	459.61
563.004	421.31
563.356	385.56
563.709	467.27
564.061	472.37
564.413	449.39
564.766	375.35
565.118	398.33
565.47	367.69
565.822	370.24
566.174	428.97
566.526	449.39
566.878	454.5
567.23	444.29
567.582	436.63
567.934	423.86
568.286	377.9
568.638	365.13
568.989	395.77
569.341	403.43
569.693	380.45
570.044	449.39
570.396	393.22
570.747	418.75
571.098	451.95
571.45	395.77
571.801	418.75
572.152	385.56
572.504	388.11
572.855	370.24
573.206	428.97
573.557	413.65
573.908	398.33
574.259	408.54
574.61	436.63
574.961	444.29
575.311	416.2
575.662	439.18
576.013	362.58
576.364	398.33
576.714	451.95
577.065	413.65
577.415	393.22
577.766	436.63
578.116	418.75
578.467	431.52
578.817	472.37
579.167	441.73
579.518	367.69
579.868	372.79
580.218	416.2
580.568	339.6
580.918	416.2
581.268	454.5
581.618	411.09
581.968	459.61
582.318	380.45
582.668	423.86
583.017	354.92
583.367	436.63
583.717	439.18
584.066	446.84
584.416	462.16
584.765	439.18
585.115	403.43
585.464	423.86
585.814	413.65
586.163	375.35
586.512	413.65
586.862	390.67
587.211	400.88
587.56	426.41
587.909	423.86
588.258	400.88
588.607	411.09
588.956	329.39
589.305	408.54
589.654	436.63
590.002	467.27
590.351	375.35
590.7	375.35
591.048	383.01
591.397	413.65
591.746	428.97
592.094	444.29
592.443	408.54
592.791	472.37
593.139	467.27
593.488	464.71
593.836	390.67
594.184	398.33
594.532	457.05
594.88	393.22
595.228	360.03
595.576	416.2
595.924	388.11
596.272	352.37
596.62	405.99
596.968	380.45
597.316	372.79
597.664	383.01
598.011	436.63
598.359	388.11
598.706	462.16
599.054	431.52
599.402	426.41
599.749	408.54
600.096	403.43
600.444	380.45
600.791	349.81
601.138	413.65
601.485	490.25
601.833	344.71
602.18	421.31
602.527	405.99
602.874	411.09
603.221	428.97
603.568	403.43
603.914	426.41
604.261	449.39
604.608	400.88
604.955	408.54
605.301	462.16
605.648	423.86
605.995	464.71
606.341	416.2
606.688	383.01
607.034	426.41
607.38	441.73
607.727	385.56
608.073	413.65
608.419	421.31
608.765	388.11
609.112	411.09
609.458	383.01
609.804	385.56
610.15	365.13
610.496	372.79
610.842	431.52
611.187	370.24
611.533	393.22
611.879	398.33
612.225	385.56
612.57	334.49
612.916	380.45
613.261	446.84
613.607	403.43
613.952	434.07
614.298	490.25
614.643	349.81
614.989	393.22
615.334	390.67
615.679	431.52
616.024	449.39
616.369	436.63
616.714	467.27
617.059	385.56
617.404	405.99
617.749	403.43
618.094	337.05
618.439	423.86
618.784	413.65
619.129	428.97
619.473	349.81
619.818	403.43
620.163	472.37
620.507	360.03
620.852	439.18
621.196	390.67
621.54	324.28
621.885	405.99
622.229	416.2
622.573	357.47
622.918	400.88
623.262	398.33
623.606	383.01
623.95	423.86
624.294	352.37
624.638	334.49
624.982	428.97
625.326	411.09
625.67	426.41
626.013	390.67
626.357	398.33
626.701	408.54
627.044	375.35
627.388	459.61
627.731	329.39
628.075	398.33
628.418	434.07
628.762	388.11
629.105	372.79
629.448	354.92
629.792	403.43
630.135	405.99
630.478	393.22
630.821	487.7
631.164	413.65
631.507	446.84
631.85	434.07
632.193	441.73
632.536	464.71
632.879	436.63
633.221	408.54
633.564	431.52
633.907	400.88
634.249	436.63
634.592	413.65
634.935	388.11
635.277	421.31
635.619	395.77
635.962	372.79
636.304	360.03
636.646	423.86
636.989	360.03
637.331	403.43
637.673	431.52
638.015	482.59
638.357	400.88
638.699	400.88
639.041	400.88
639.383	441.73
639.725	467.27
640.067	431.52
640.408	431.52
640.75	411.09
641.092	395.77
641.433	413.65
641.775	497.91
642.116	477.48
642.458	441.73
642.799	372.79
643.141	451.95
643.482	393.22
643.823	337.05
644.164	390.67
644.506	487.7
644.847	405.99
645.188	436.63
645.529	428.97
645.87	395.77
646.211	388.11
646.552	377.9
646.893	357.47
647.233	403.43
647.574	347.26
647.915	418.75
648.255	434.07
648.596	352.37
648.937	395.77
649.277	342.15
649.618	428.97
649.958	436.63
650.298	431.52
650.639	393.22
650.979	375.35
651.319	372.79
651.659	408.54
651.999	400.88
652.339	436.63
652.679	393.22
653.019	375.35
653.359	408.54
653.699	385.56
654.039	408.54
654.379	385.56
654.719	495.36
655.058	408.54
655.398	388.11
655.737	459.61
656.077	331.94
656.416	334.49
656.756	377.9
657.095	423.86
657.435	367.69
657.774	395.77
658.113	444.29
658.452	388.11
658.792	385.56
659.131	413.65
659.47	362.58
659.809	472.37
660.148	403.43
660.487	434.07
660.826	426.41
661.164	390.67
661.503	344.71
661.842	446.84
662.181	400.88
662.519	388.11
662.858	365.13
663.196	342.15
663.535	372.79
663.873	426.41
664.212	418.75
664.55	398.33
664.888	416.2
665.226	375.35
665.565	388.11
665.903	602.6
666.241	490.25
666.579	449.39
666.917	403.43
667.255	393.22
667.593	428.97
667.931	418.75
668.268	352.37
668.606	416.2
668.944	380.45
669.282	347.26
669.619	439.18
669.957	385.56
670.294	388.11
670.632	426.41
670.969	423.86
671.307	357.47
671.644	423.86
671.981	454.5
672.318	388.11
672.656	426.41
672.993	398.33
673.33	426.41
673.667	436.63
674.004	367.69
674.341	393.22
674.678	454.5
675.015	367.69
675.351	372.79
675.688	418.75
676.025	446.84
676.362	431.52
676.698	434.07
677.035	365.13
677.371	403.43
677.708	398.33
678.044	385.56
678.38	370.24
678.717	367.69
679.053	360.03
679.389	408.54
679.725	398.33
680.062	390.67
680.398	352.37
680.734	416.2
681.07	398.33
681.406	469.82
681.742	360.03
682.077	370.24
682.413	398.33
682.749	357.47
683.085	413.65
683.42	446.84
683.756	375.35
684.091	403.43
684.427	367.69
684.762	395.77
685.098	403.43
685.433	408.54
685.768	385.56
686.104	367.69
686.439	403.43
686.774	462.16
687.109	377.9
687.444	347.26
687.779	413.65
688.114	405.99
688.449	411.09
688.784	321.73
689.119	383.01
689.454	390.67
689.789	388.11
690.123	380.45
690.458	334.49
690.792	314.07
691.127	375.35
691.461	388.11
691.796	405.99
692.13	439.18
692.465	367.69
692.799	367.69
693.133	449.39
693.467	372.79
693.802	352.37
694.136	342.15
694.47	428.97
694.804	372.79
695.138	395.77
695.472	375.35
695.806	441.73
696.139	428.97
696.473	370.24
696.807	469.82
697.141	372.79
697.474	375.35
697.808	444.29
698.141	426.41
698.475	413.65
698.808	334.49
699.142	337.05
699.475	405.99
699.808	388.11
700.142	426.41
700.475	388.11
700.808	403.43
701.141	342.15
701.474	423.86
701.807	413.65
702.14	449.39
702.473	421.31
702.806	467.27
703.139	416.2
703.472	416.2
703.804	444.29
704.137	370.24
704.47	383.01
704.802	464.71
705.135	423.86
705.467	421.31
705.8	380.45
706.132	421.31
706.464	436.63
706.797	370.24
707.129	344.71
707.461	395.77
707.793	426.41
708.125	352.37
708.457	411.09
708.789	383.01
709.121	388.11
709.453	352.37
709.785	395.77
710.117	400.88
710.449	436.63
710.781	301.3
711.112	370.24
711.444	383.01
711.775	411.09
712.107	388.11
712.438	375.35
712.77	354.92
713.101	354.92
713.433	416.2
713.764	413.65
714.095	367.69
714.426	464.71
714.757	439.18
715.089	434.07
715.42	390.67
715.751	372.79
716.082	400.88
716.412	383.01
716.743	426.41
717.074	411.09
717.405	380.45
717.736	370.24
718.066	451.95
718.397	449.39
718.727	360.03
719.058	416.2
719.388	329.39
719.719	421.31
720.049	362.58
720.38	334.49
720.71	357.47
721.04	390.67
721.37	405.99
721.7	421.31
722.031	321.73
722.361	383.01
722.691	446.84
723.021	372.79
723.35	426.41
723.68	416.2
724.01	329.39
724.34	398.33
724.67	375.35
724.999	372.79
725.329	408.54
725.658	462.16
725.988	357.47
726.317	393.22
726.647	370.24
726.976	408.54
727.306	329.39
727.635	362.58
727.964	421.31
728.293	405.99
728.622	357.47
728.952	380.45
729.281	365.13
729.61	390.67
729.939	454.5
730.267	439.18
730.596	370.24
730.925	357.47
731.254	416.2
731.583	446.84
731.911	469.82
732.24	416.2
732.568	357.47
732.897	383.01
733.225	393.22
733.554	423.86
733.882	388.11
734.21	326.83
734.539	395.77
734.867	405.99
735.195	390.67
735.523	403.43
735.851	372.79
736.179	459.61
736.507	357.47
736.835	349.81
737.163	324.28
737.491	344.71
737.819	367.69
738.147	393.22
738.474	416.2
738.802	454.5
739.13	418.75
739.457	428.97
739.785	354.92
740.112	342.15
740.44	360.03
740.767	403.43
741.094	321.73
741.422	393.22
741.749	370.24
742.076	405.99
742.403	400.88
742.73	349.81
743.057	339.6
743.384	390.67
743.711	342.15
744.038	426.41
744.365	446.84
744.692	405.99
745.018	349.81
745.345	380.45
745.672	428.97
745.998	423.86
746.325	393.22
746.651	314.07
746.978	349.81
747.304	383.01
747.631	411.09
747.957	441.73
748.283	428.97
748.61	405.99
748.936	467.27
749.262	390.67
749.588	375.35
749.914	316.62
750.24	383.01
750.566	398.33
750.892	385.56
751.218	383.01
751.543	444.29
751.869	390.67
752.195	383.01
752.521	372.79
752.846	385.56
753.172	436.63
753.497	385.56
753.823	405.99
754.148	395.77
754.473	388.11
754.799	352.37
755.124	377.9
755.449	413.65
755.774	413.65
756.1	464.71
756.425	421.31
756.75	408.54
757.075	365.13
757.4	528.55
757.724	405.99
758.049	365.13
758.374	377.9
758.699	352.37
759.024	331.94
759.348	367.69
759.673	428.97
759.997	383.01
760.322	451.95
760.646	360.03
760.971	388.11
761.295	408.54
761.619	467.27
761.944	421.31
762.268	354.92
762.592	383.01
762.916	439.18
763.24	434.07
763.564	497.91
763.888	393.22
764.212	400.88
764.536	485.14
764.86	518.34
765.184	480.04
765.508	416.2
765.831	462.16
766.155	737.93
766.478	520.89
766.802	495.36
767.126	490.25
767.449	543.87
767.772	574.51
768.096	515.78
768.419	574.51
768.742	587.28
769.066	615.36
769.389	610.26
769.712	748.14
770.035	635.79
770.358	646
770.681	656.22
771.004	648.56
771.327	681.75
771.65	737.93
771.972	727.71
772.295	860.49
772.618	686.86
772.941	811.97
773.263	891.13
773.586	875.81
773.908	834.95
774.231	880.92
774.553	1013.69
774.875	1029.01
775.198	1036.67
775.52	1092.85
775.842	926.88
776.164	1008.58
776.487	944.75
776.809	977.94
777.131	1031.56
777.453	1077.53
777.775	1103.06
778.096	1141.36
778.418	1138.81
778.74	1123.49
779.062	1080.08
779.384	1138.81
779.705	1286.9
780.027	1345.63
780.348	1409.46
780.67	1312.44
780.991	1401.8
781.313	1511.6
781.634	1618.84
781.955	1552.45
782.277	1560.11
782.598	1606.07
782.919	1521.81
783.24	1524.37
783.561	1598.41
783.882	1521.81
784.203	1560.11
784.524	1552.45
784.845	1600.97
785.166	1560.11
785.487	1593.31
785.807	1654.59
786.128	1623.95
786.449	1623.95
786.769	1746.51
787.09	1869.07
787.41	1996.74
787.731	2058.02
788.051	2119.3
788.372	2226.55
788.692	2246.97
789.012	2300.59
789.332	2132.07
789.653	2295.49
789.973	2400.18
790.293	2446.14
790.613	2050.36
790.933	2206.12
791.253	2354.21
791.573	2160.16
791.893	2203.57
792.212	2165.26
792.532	2144.84
792.852	2050.36
793.171	1968.65
793.491	1940.57
793.811	2022.28
794.13	1981.42
794.45	1894.61
794.769	1690.34
795.088	1772.04
795.408	1792.47
795.727	1894.61
796.046	1815.45
796.365	1835.88
796.684	1815.45
797.004	1810.35
797.323	1963.55
797.642	2369.53
797.96	2369.53
798.279	2471.67
798.598	2423.16
798.917	2336.34
799.236	2201.01
799.554	2139.73
799.873	1940.57
800.192	2050.36
800.51	2012.06
800.829	2040.15
801.147	1948.23
801.466	1935.46
801.784	1935.46
802.102	1904.82
802.421	2001.85
802.739	2246.97
803.057	2157.6
803.375	1994.19
803.693	2055.47
804.011	2252.08
804.329	2354.21
804.647	2295.49
804.965	2086.11
805.283	2045.26
805.601	2035.04
805.918	1917.59
806.236	1792.47
806.554	1723.53
806.871	1754.17
807.189	1902.27
807.507	2078.45
807.824	2019.72
808.141	1807.79
808.459	1629.06
808.776	1636.72
809.093	1432.45
809.411	1353.29
809.728	1383.93
810.045	1447.77
810.362	1452.87
810.679	1422.23
810.996	1376.27
811.313	1325.2
811.63	1404.36
811.947	1335.42
812.264	1345.63
812.58	1261.37
812.897	1220.51
813.214	1274.14
813.53	1251.16
813.847	1358.4
814.163	1345.63
814.48	1289.46
814.796	1215.41
815.113	1207.75
815.429	1205.19
815.745	1169.45
816.061	1064.76
816.378	1072.42
816.694	1069.87
817.01	1016.24
817.326	1120.93
817.642	1090.29
817.958	1011.14
818.274	965.18
818.59	947.3
818.905	868.15
819.221	949.86
819.537	990.71
819.852	993.26
820.168	939.64
820.484	970.28
820.799	934.54
821.115	949.86
821.43	1029.01
821.745	898.79
822.061	914.11
822.376	840.06
822.691	852.83
823.006	796.65
823.322	837.51
823.637	727.71
823.952	804.31
824.267	783.89
824.582	837.51
824.897	832.4
825.211	758.35
825.526	694.52
825.841	714.95
826.156	801.76
826.47	753.25
826.785	717.5
827.1	704.73
827.414	663.88
827.729	671.54
828.043	684.31
828.357	681.75
828.672	689.41
828.986	658.77
829.3	679.2
829.614	689.41
829.929	515.78
830.243	605.15
830.557	620.47
830.871	569.4
831.185	497.91
831.499	503.02
831.812	584.72
832.126	556.64
832.44	602.6
832.754	668.99
833.067	630.68
833.381	691.97
833.695	615.36
834.008	556.64
834.322	559.19
834.635	679.2
834.948	561.74
835.262	538.76
835.575	574.51
835.888	577.06
836.201	533.66
836.515	602.6
836.828	571.96
837.141	497.91
837.454	482.59
837.767	554.08
838.08	413.65
838.392	505.57
838.705	556.64
839.018	472.37
839.331	482.59
839.643	497.91
839.956	462.16
840.269	518.34
840.581	497.91
840.894	441.73
841.206	459.61
841.519	559.19
841.831	515.78
842.143	459.61
842.455	446.84
842.768	434.07
843.08	454.5
843.392	462.16
843.704	464.71
844.016	434.07
844.328	421.31
844.64	472.37
844.952	451.95
845.263	405.99
845.575	477.48
845.887	436.63
846.199	477.48
846.51	380.45
846.822	480.04
847.133	403.43
847.445	377.9
847.756	418.75
848.068	303.85
848.379	326.83
848.69	457.05
849.002	377.9
849.313	388.11
849.624	398.33
849.935	362.58
850.246	413.65
850.557	388.11
850.868	388.11
851.179	388.11
851.49	385.56
851.801	477.48
852.112	383.01
852.422	403.43
852.733	423.86
853.044	449.39
853.354	342.15
853.665	395.77
853.975	380.45
854.286	441.73
854.596	388.11
854.906	339.6
855.217	418.75
855.527	385.56
855.837	365.13
856.147	388.11
856.458	354.92
856.768	393.22
857.078	444.29
857.388	367.69
857.698	383.01
858.007	342.15
858.317	436.63
858.627	416.2
858.937	464.71
859.246	349.81
859.556	370.24
859.866	464.71
860.175	418.75
860.485	349.81
860.794	411.09
861.104	395.77
861.413	385.56
861.722	418.75
862.032	411.09
862.341	375.35
862.65	331.94
862.959	337.05
863.268	357.47
863.577	278.32
863.886	352.37
864.195	395.77
864.504	418.75
864.813	377.9
865.122	405.99
865.43	370.24
865.739	388.11
866.048	434.07
866.356	403.43
866.665	377.9
866.973	400.88
867.282	418.75
867.59	344.71
867.899	354.92
868.207	444.29
868.515	441.73
868.823	383.01
869.132	439.18
869.44	372.79
869.748	349.81
870.056	385.56
870.364	395.77
870.672	454.5
870.98	436.63
871.288	400.88
871.595	444.29
871.903	490.25
872.211	380.45
872.518	428.97
872.826	462.16
873.134	365.13
873.441	388.11
873.749	354.92
874.056	362.58
874.363	354.92
874.671	383.01
874.978	372.79
875.285	352.37
875.592	431.52
875.9	393.22
876.207	385.56
876.514	426.41
876.821	395.77
877.128	390.67
877.435	375.35
877.741	408.54
878.048	434.07
878.355	398.33
878.662	416.2
878.968	367.69
879.275	403.43
879.582	370.24
879.888	393.22
880.195	388.11
880.501	403.43
880.807	441.73
881.114	365.13
881.42	349.81
881.726	347.26
882.032	390.67
882.339	426.41
882.645	449.39
882.951	472.37
883.257	444.29
883.563	462.16
883.869	454.5
884.174	398.33
884.48	334.49
884.786	405.99
885.092	436.63
885.397	436.63
885.703	403.43
886.009	352.37
886.314	423.86
886.62	372.79
886.925	434.07
887.231	426.41
887.536	457.05
887.841	385.56
888.146	426.41
888.452	349.81
888.757	342.15
889.062	423.86
889.367	377.9
889.672	398.33
889.977	451.95
890.282	400.88
890.587	416.2
890.892	393.22
891.196	454.5
891.501	390.67
891.806	365.13
892.11	367.69
892.415	339.6
892.72	360.03
893.024	329.39
893.328	428.97
893.633	306.41
893.937	360.03
894.242	370.24
894.546	421.31
894.85	367.69
895.154	403.43
895.458	360.03
895.762	421.31
896.066	390.67
896.37	434.07
896.674	375.35
896.978	441.73
897.282	395.77
897.586	395.77
897.89	354.92
898.193	474.93
898.497	441.73
898.801	362.58
899.104	357.47
899.408	403.43
899.711	400.88
900.014	370.24
900.318	441.73
900.621	377.9
900.924	360.03
901.228	421.31
901.531	370.24
901.834	405.99
902.137	398.33
902.44	400.88
902.743	354.92
903.046	375.35
903.349	352.37
903.652	337.05
903.955	360.03
904.257	357.47
904.56	383.01
904.863	380.45
905.165	352.37
905.468	390.67
905.77	444.29
906.073	426.41
906.375	365.13
906.678	462.16
906.98	385.56
907.282	360.03
907.584	388.11
907.887	398.33
908.189	431.52
908.491	342.15
908.793	400.88
909.095	449.39
909.397	469.82
909.699	354.92
910.001	446.84
910.302	344.71
910.604	413.65
910.906	444.29
911.208	454.5
911.509	337.05
911.811	393.22
912.112	405.99
912.414	405.99
912.715	482.59
913.017	423.86
913.318	375.35
913.619	388.11
913.92	413.65
914.222	349.81
914.523	426.41
914.824	347.26
915.125	393.22
915.426	431.52
915.727	380.45
916.028	342.15
916.329	331.94
916.63	457.05
916.93	375.35
917.231	370.24
917.532	370.24
917.832	400.88
918.133	362.58
918.434	367.69
918.734	400.88
919.034	446.84
919.335	477.48
919.635	451.95
919.935	418.75
920.236	380.45
920.536	408.54
920.836	321.73
921.136	416.2
921.436	434.07
921.736	436.63
922.036	474.93
922.336	380.45
922.636	367.69
922.936	426.41
923.236	423.86
923.535	431.52
923.835	405.99
924.135	342.15
924.434	321.73
924.734	314.07
925.033	339.6
925.333	388.11
925.632	339.6
925.932	416.2
926.231	367.69
926.53	334.49
926.83	403.43
927.129	339.6
927.428	362.58
927.727	393.22
928.026	423.86
928.325	400.88
928.624	400.88
928.923	436.63
929.222	344.71
929.52	380.45
929.819	375.35
930.118	380.45
930.417	347.26
930.715	449.39
931.014	385.56
931.312	418.75
931.611	354.92
931.909	393.22
932.207	454.5
932.506	372.79
932.804	388.11
933.102	352.37
933.401	349.81
933.699	411.09
933.997	400.88
934.295	367.69
934.593	324.28
934.891	334.49
935.189	375.35
935.487	411.09
935.784	413.65
936.082	449.39
936.38	367.69
936.677	301.3
936.975	329.39
937.273	395.77
937.57	342.15
937.868	367.69
938.165	446.84
938.463	400.88
938.76	393.22
939.057	380.45
939.354	291.09
939.652	398.33
939.949	365.13
940.246	441.73
940.543	467.27
940.84	411.09
941.137	372.79
941.434	383.01
941.731	426.41
942.028	362.58
942.324	390.67
942.621	375.35
942.918	360.03
943.214	388.11
943.511	400.88
943.807	375.35
944.104	408.54
944.4	400.88
944.697	347.26
944.993	457.05
945.29	383.01
945.586	383.01
945.882	395.77
946.178	423.86
946.474	362.58
946.77	385.56
947.066	354.92
947.362	362.58
947.658	385.56
947.954	431.52
948.25	444.29
948.546	408.54
948.842	385.56
949.137	347.26
949.433	365.13
949.729	411.09
950.024	423.86
950.32	423.86
950.615	398.33
950.91	408.54
951.206	344.71
951.501	365.13
951.796	334.49
952.092	393.22
952.387	377.9
952.682	388.11
952.977	316.62
953.272	388.11
953.567	380.45
953.862	357.47
954.157	398.33
954.452	423.86
954.747	377.9
955.041	405.99
955.336	393.22
955.631	454.5
955.925	385.56
956.22	383.01
956.514	403.43
956.809	390.67
957.103	370.24
957.398	321.73
957.692	400.88
957.986	375.35
958.281	405.99
958.575	431.52
958.869	375.35
959.163	405.99
959.457	403.43
959.751	428.97
960.045	451.95
960.339	296.19
960.633	377.9
960.927	375.35
961.221	398.33
961.514	375.35
961.808	398.33
962.102	485.14
962.395	398.33
962.689	347.26
962.982	337.05
963.276	352.37
963.569	375.35
963.862	439.18
964.156	377.9
964.449	454.5
964.742	400.88
965.035	408.54
965.328	418.75
965.622	388.11
965.915	426.41
966.208	375.35
966.5	403.43
966.793	413.65
967.086	408.54
967.379	383.01
967.672	428.97
967.964	416.2
968.257	354.92
968.55	383.01
968.842	395.77
969.135	326.83
969.427	413.65
969.72	413.65
970.012	314.07
970.304	469.82
970.597	383.01
970.889	349.81
971.181	380.45
971.473	418.75
971.765	383.01
972.057	380.45
972.349	375.35
972.641	426.41
972.933	372.79
973.225	329.39
973.517	354.92
973.809	357.47
974.1	423.86
974.392	375.35
974.684	370.24
974.975	352.37
975.267	357.47
975.558	395.77
975.85	388.11
976.141	421.31
976.432	385.56
976.724	444.29
977.015	367.69
977.306	352.37
977.597	370.24
977.888	372.79
978.179	457.05
978.47	388.11
978.761	426.41
979.052	360.03
979.343	365.13
979.634	352.37
979.925	408.54
980.215	393.22
980.506	314.07
980.797	418.75
981.087	380.45
981.378	449.39
981.668	314.07
981.959	434.07
982.249	393.22
982.54	380.45
982.83	285.98
983.12	383.01
983.41	400.88
983.701	349.81
983.991	334.49
984.281	342.15
984.571	390.67
984.861	360.03
985.151	441.73
985.441	372.79
985.73	436.63
986.02	380.45
986.31	390.67
986.6	441.73
986.889	400.88
987.179	398.33
987.469	375.35
987.758	365.13
988.048	385.56
988.337	395.77
988.626	383.01
988.916	372.79
989.205	342.15
989.494	347.26
989.783	306.41
990.073	349.81
990.362	421.31
990.651	405.99
990.94	439.18
991.229	372.79
991.518	365.13
991.806	365.13
992.095	331.94
992.384	388.11
992.673	334.49
992.961	362.58
993.25	398.33
993.539	451.95
993.827	444.29
994.116	423.86
994.404	324.28
994.692	377.9
994.981	462.16
995.269	380.45
995.557	431.52
995.846	413.65
996.134	403.43
996.422	446.84
996.71	390.67
996.998	416.2
997.286	380.45
997.574	426.41
997.862	377.9
998.15	375.35
998.437	326.83
998.725	365.13
999.013	398.33
999.3	408.54
999.588	377.9
999.876	362.58
1000.163	357.47
1000.45	280.87
1000.738	372.79
1001.025	372.79
1001.313	365.13
1001.6	403.43
1001.887	400.88
1002.174	365.13
1002.461	375.35
1002.748	362.58
1003.036	416.2
1003.322	400.88
1003.609	393.22
1003.896	393.22
1004.183	457.05
1004.47	352.37
1004.757	426.41
1005.043	375.35
1005.33	416.2
1005.617	347.26
1005.903	405.99
1006.19	331.94
1006.476	408.54
1006.763	454.5
1007.049	388.11
1007.335	434.07
1007.622	390.67
1007.908	377.9
1008.194	385.56
1008.48	398.33
1008.766	370.24
1009.053	385.56
1009.339	357.47
1009.625	352.37
1009.91	449.39
1010.196	400.88
1010.482	342.15
1010.768	418.75
1011.054	400.88
1011.339	388.11
1011.625	390.67
1011.911	385.56
1012.196	316.62
1012.482	339.6
1012.767	408.54
1013.052	380.45
1013.338	342.15
1013.623	362.58
1013.908	365.13
1014.194	439.18
1014.479	370.24
1014.764	380.45
1015.049	431.52
1015.334	347.26
1015.619	357.47
1015.904	375.35
1016.189	365.13
1016.474	370.24
1016.758	418.75
1017.043	418.75
1017.328	357.47
1017.613	383.01
1017.897	421.31
1018.182	413.65
1018.466	377.9
1018.751	337.05
1019.035	375.35
1019.32	329.39
1019.604	354.92
1019.888	413.65
1020.172	413.65
1020.457	413.65
