Data from 2025-12-03_xpw_interference_micrometer_634_reference_FLMS141361__82__532.txt Node

Date: Wed Dec 03 15:52:27 MST 2025
User: james
Spectrometer: FLMS14136
Trigger mode: 0
Integration Time (sec): 1.000000E-1
Scans to average: 1
Electric dark correction enabled: true
Nonlinearity correction enabled: false
Boxcar width: 0
XAxis mode: Wavelengths
Number of Pixels in Spectrum: 2048
>>>>>Begin Spectral Data<<<<<
339.315	-31.44
339.697	-31.44
340.079	-31.44
340.461	-54.42
340.843	-69.74
341.225	-95.27
341.607	-102.93
341.989	-82.51
342.371	-62.08
342.752	-54.42
343.134	-77.4
343.516	-59.53
343.897	-18.67
344.279	-3.35
344.661	-5.9
345.042	34.95
345.423	32.4
345.805	52.82
346.186	172.83
346.567	162.62
346.949	106.44
347.33	211.13
347.711	175.39
348.092	180.49
348.473	170.28
348.854	259.65
349.235	249.43
349.616	277.52
349.997	331.14
350.378	244.33
350.758	249.43
351.139	351.57
351.52	333.69
351.9	315.82
352.281	405.19
352.661	377.1
353.042	341.35
353.422	402.64
353.803	435.83
354.183	382.21
354.563	333.69
354.943	417.96
355.324	372
355.704	392.42
356.084	407.74
356.464	438.38
356.844	502.22
357.224	453.7
357.603	417.96
357.983	384.76
358.363	410.3
358.743	415.4
359.122	331.14
359.502	400.08
359.882	361.78
360.261	343.91
360.641	366.89
361.02	351.57
361.399	364.34
361.779	315.82
362.158	433.28
362.537	379.66
362.916	346.46
363.296	372
363.675	349.01
364.054	336.25
364.433	328.59
364.812	374.55
365.19	351.57
365.569	354.12
365.948	369.44
366.327	364.34
366.705	392.42
367.084	372
367.463	356.67
367.841	369.44
368.22	407.74
368.598	336.25
368.977	295.39
369.355	389.87
369.733	308.16
370.111	359.23
370.49	318.37
370.868	343.91
371.246	328.59
371.624	359.23
372.002	379.66
372.38	369.44
372.758	361.78
373.136	374.55
373.513	425.62
373.891	415.4
374.269	354.12
374.646	315.82
375.024	305.61
375.402	331.14
375.779	382.21
376.157	310.71
376.534	374.55
376.911	410.3
377.289	356.67
377.666	356.67
378.043	407.74
378.42	387.32
378.797	349.01
379.175	343.91
379.552	318.37
379.929	400.08
380.305	333.69
380.682	379.66
381.059	372
381.436	354.12
381.813	374.55
382.189	387.32
382.566	389.87
382.943	412.85
383.319	320.93
383.696	397.53
384.072	384.76
384.448	384.76
384.825	346.46
385.201	351.57
385.577	241.77
385.953	361.78
386.329	326.03
386.706	379.66
387.082	428.17
387.458	392.42
387.834	305.61
388.209	359.23
388.585	349.01
388.961	420.51
389.337	463.92
389.713	359.23
390.088	364.34
390.464	425.62
390.839	486.9
391.215	417.96
391.59	343.91
391.966	428.17
392.341	428.17
392.716	366.89
393.092	400.08
393.467	417.96
393.842	349.01
394.217	364.34
394.592	394.98
394.967	425.62
395.342	333.69
395.717	303.05
396.092	377.1
396.467	407.74
396.841	351.57
397.216	377.1
397.591	280.07
397.965	328.59
398.34	374.55
398.714	387.32
399.089	384.76
399.463	341.35
399.838	410.3
400.212	372
400.586	400.08
400.961	351.57
401.335	346.46
401.709	400.08
402.083	387.32
402.457	394.98
402.831	443.49
403.205	446.04
403.579	400.08
403.953	410.3
404.326	341.35
404.7	392.42
405.074	346.46
405.447	420.51
405.821	507.32
406.195	382.21
406.568	351.57
406.942	394.98
407.315	354.12
407.688	448.6
408.062	346.46
408.435	336.25
408.808	351.57
409.181	351.57
409.554	282.63
409.927	338.8
410.3	374.55
410.673	290.29
411.046	433.28
411.419	433.28
411.792	384.76
412.165	382.21
412.537	356.67
412.91	361.78
413.283	315.82
413.655	361.78
414.028	438.38
414.4	415.4
414.773	382.21
415.145	349.01
415.517	407.74
415.889	354.12
416.262	372
416.634	300.5
417.006	333.69
417.378	384.76
417.75	474.13
418.122	412.85
418.494	377.1
418.866	417.96
419.238	494.56
419.609	387.32
419.981	407.74
420.353	369.44
420.725	415.4
421.096	397.53
421.468	446.04
421.839	425.62
422.211	394.98
422.582	463.92
422.953	430.72
423.325	407.74
423.696	351.57
424.067	356.67
424.438	382.21
424.809	374.55
425.18	369.44
425.551	377.1
425.922	461.36
426.293	479.24
426.664	392.42
427.035	446.04
427.406	451.15
427.776	492
428.147	440.94
428.518	412.85
428.888	392.42
429.259	389.87
429.629	425.62
429.999	359.23
430.37	423.06
430.74	407.74
431.11	425.62
431.481	402.64
431.851	410.3
432.221	469.02
432.591	446.04
432.961	326.03
433.331	356.67
433.701	435.83
434.071	435.83
434.441	407.74
434.81	415.4
435.18	446.04
435.55	377.1
435.919	392.42
436.289	456.26
436.658	372
437.028	443.49
437.397	400.08
437.767	387.32
438.136	402.64
438.505	433.28
438.875	463.92
439.244	466.47
439.613	430.72
439.982	438.38
440.351	412.85
440.72	407.74
441.089	346.46
441.458	420.51
441.827	461.36
442.196	433.28
442.564	502.22
442.933	400.08
443.302	471.58
443.67	359.23
444.039	397.53
444.407	369.44
444.776	405.19
445.144	359.23
445.513	343.91
445.881	394.98
446.249	400.08
446.617	433.28
446.986	374.55
447.354	417.96
447.722	382.21
448.09	405.19
448.458	397.53
448.826	479.24
449.194	461.36
449.561	412.85
449.929	397.53
450.297	384.76
450.665	400.08
451.032	400.08
451.4	331.14
451.767	420.51
452.135	438.38
452.502	420.51
452.87	405.19
453.237	428.17
453.604	446.04
453.971	420.51
454.339	379.66
454.706	417.96
455.073	410.3
455.44	377.1
455.807	420.51
456.174	379.66
456.541	400.08
456.908	435.83
457.274	405.19
457.641	456.26
458.008	481.79
458.374	384.76
458.741	494.56
459.108	438.38
459.474	458.81
459.841	420.51
460.207	438.38
460.573	392.42
460.94	415.4
461.306	410.3
461.672	405.19
462.038	384.76
462.404	448.6
462.771	463.92
463.137	349.01
463.503	448.6
463.868	438.38
464.234	430.72
464.6	428.17
464.966	354.12
465.332	394.98
465.697	394.98
466.063	446.04
466.429	461.36
466.794	315.82
467.16	377.1
467.525	423.06
467.89	361.78
468.256	420.51
468.621	435.83
468.986	374.55
469.351	407.74
469.717	448.6
470.082	400.08
470.447	469.02
470.812	428.17
471.177	446.04
471.542	451.15
471.906	394.98
472.271	440.94
472.636	400.08
473.001	423.06
473.365	364.34
473.73	453.7
474.094	420.51
474.459	405.19
474.823	443.49
475.188	433.28
475.552	392.42
475.917	384.76
476.281	407.74
476.645	397.53
477.009	356.67
477.373	428.17
477.737	341.35
478.101	364.34
478.465	400.08
478.829	420.51
479.193	435.83
479.557	448.6
479.921	372
480.284	415.4
480.648	440.94
481.012	407.74
481.375	435.83
481.739	443.49
482.102	463.92
482.466	400.08
482.829	420.51
483.193	412.85
483.556	448.6
483.919	346.46
484.282	394.98
484.645	425.62
485.009	463.92
485.372	379.66
485.735	323.48
486.098	361.78
486.46	377.1
486.823	372
487.186	430.72
487.549	377.1
487.912	412.85
488.274	522.64
488.637	458.81
488.999	435.83
489.362	379.66
489.724	443.49
490.087	446.04
490.449	415.4
490.811	423.06
491.174	451.15
491.536	377.1
491.898	448.6
492.26	397.53
492.622	361.78
492.984	374.55
493.346	354.12
493.708	451.15
494.07	379.66
494.432	346.46
494.794	479.24
495.155	402.64
495.517	492
495.879	389.87
496.24	451.15
496.602	410.3
496.963	458.81
497.325	369.44
497.686	394.98
498.048	359.23
498.409	394.98
498.77	379.66
499.131	415.4
499.492	423.06
499.854	384.76
500.215	479.24
500.576	415.4
500.937	372
501.298	443.49
501.658	392.42
502.019	466.47
502.38	402.64
502.741	397.53
503.101	361.78
503.462	407.74
503.823	499.66
504.183	443.49
504.543	420.51
504.904	469.02
505.264	389.87
505.625	466.47
505.985	387.32
506.345	446.04
506.705	456.26
507.065	435.83
507.426	438.38
507.786	486.9
508.146	443.49
508.505	438.38
508.865	366.89
509.225	415.4
509.585	499.66
509.945	438.38
510.304	430.72
510.664	415.4
511.024	387.32
511.383	405.19
511.743	410.3
512.102	410.3
512.462	469.02
512.821	410.3
513.18	392.42
513.539	435.83
513.899	430.72
514.258	425.62
514.617	369.44
514.976	412.85
515.335	392.42
515.694	440.94
516.053	448.6
516.412	461.36
516.771	433.28
517.129	356.67
517.488	400.08
517.847	471.58
518.205	456.26
518.564	412.85
518.922	328.59
519.281	476.68
519.639	435.83
519.998	397.53
520.356	331.14
520.714	389.87
521.073	443.49
521.431	453.7
521.789	420.51
522.147	397.53
522.505	384.76
522.863	412.85
523.221	387.32
523.579	369.44
523.937	343.91
524.295	453.7
524.652	423.06
525.01	400.08
525.368	400.08
525.725	412.85
526.083	351.57
526.44	392.42
526.798	328.59
527.155	379.66
527.513	356.67
527.87	458.81
528.227	407.74
528.584	435.83
528.942	425.62
529.299	338.8
529.656	328.59
530.013	374.55
530.37	356.67
530.727	423.06
531.083	430.72
531.44	384.76
531.797	417.96
532.154	476.68
532.511	433.28
532.867	384.76
533.224	361.78
533.58	389.87
533.937	351.57
534.293	423.06
534.65	484.34
535.006	402.64
535.362	364.34
535.718	438.38
536.075	417.96
536.431	412.85
536.787	433.28
537.143	387.32
537.499	394.98
537.855	389.87
538.211	469.02
538.567	463.92
538.923	466.47
539.278	504.77
539.634	415.4
539.99	415.4
540.345	417.96
540.701	382.21
541.056	407.74
541.412	423.06
541.767	397.53
542.123	440.94
542.478	402.64
542.833	451.15
543.188	469.02
543.544	394.98
543.899	435.83
544.254	387.32
544.609	384.76
544.964	369.44
545.319	428.17
545.674	402.64
546.029	389.87
546.383	407.74
546.738	394.98
547.093	354.12
547.447	356.67
547.802	400.08
548.157	394.98
548.511	458.81
548.866	474.13
549.22	343.91
549.574	425.62
549.929	428.17
550.283	440.94
550.637	417.96
550.991	377.1
551.345	417.96
551.699	374.55
552.053	379.66
552.407	369.44
552.761	415.4
553.115	410.3
553.469	438.38
553.823	400.08
554.176	451.15
554.53	438.38
554.884	415.4
555.237	614.57
555.591	466.47
555.944	492
556.298	389.87
556.651	392.42
557.005	420.51
557.358	443.49
557.711	435.83
558.064	354.12
558.417	423.06
558.771	481.79
559.124	469.02
559.477	443.49
559.83	448.6
560.182	458.81
560.535	430.72
560.888	512.43
561.241	428.17
561.594	384.76
561.946	420.51
562.299	359.23
562.651	435.83
563.004	420.51
563.356	351.57
563.709	415.4
564.061	420.51
564.413	407.74
564.766	430.72
565.118	412.85
565.47	417.96
565.822	425.62
566.174	440.94
566.526	405.19
566.878	463.92
567.23	410.3
567.582	448.6
567.934	440.94
568.286	423.06
568.638	448.6
568.989	410.3
569.341	374.55
569.693	338.8
570.044	397.53
570.396	461.36
570.747	379.66
571.098	402.64
571.45	400.08
571.801	389.87
572.152	384.76
572.504	384.76
572.855	412.85
573.206	481.79
573.557	394.98
573.908	484.34
574.259	514.98
574.61	346.46
574.961	481.79
575.311	433.28
575.662	341.35
576.013	372
576.364	440.94
576.714	389.87
577.065	428.17
577.415	377.1
577.766	489.45
578.116	394.98
578.467	410.3
578.817	466.47
579.167	440.94
579.518	338.8
579.868	438.38
580.218	456.26
580.568	392.42
580.918	405.19
581.268	451.15
581.618	400.08
581.968	423.06
582.318	320.93
582.668	382.21
583.017	400.08
583.367	435.83
583.717	463.92
584.066	423.06
584.416	402.64
584.765	466.47
585.115	458.81
585.464	458.81
585.814	372
586.163	397.53
586.512	331.14
586.862	405.19
587.211	410.3
587.56	412.85
587.909	456.26
588.258	443.49
588.607	443.49
588.956	446.04
589.305	443.49
589.654	397.53
590.002	423.06
590.351	423.06
590.7	443.49
591.048	407.74
591.397	420.51
591.746	392.42
592.094	377.1
592.443	448.6
592.791	425.62
593.139	405.19
593.488	387.32
593.836	400.08
594.184	374.55
594.532	397.53
594.88	438.38
595.228	471.58
595.576	410.3
595.924	514.98
596.272	420.51
596.62	400.08
596.968	359.23
597.316	446.04
597.664	407.74
598.011	379.66
598.359	405.19
598.706	405.19
599.054	341.35
599.402	389.87
599.749	420.51
600.096	346.46
600.444	366.89
600.791	423.06
601.138	420.51
601.485	405.19
601.833	369.44
602.18	440.94
602.527	397.53
602.874	384.76
603.221	428.17
603.568	446.04
603.914	379.66
604.261	369.44
604.608	463.92
604.955	446.04
605.301	387.32
605.648	400.08
605.995	359.23
606.341	443.49
606.688	372
607.034	343.91
607.38	446.04
607.727	394.98
608.073	356.67
608.419	402.64
608.765	428.17
609.112	443.49
609.458	402.64
609.804	400.08
610.15	361.78
610.496	415.4
610.842	387.32
611.187	392.42
611.533	415.4
611.879	377.1
612.225	397.53
612.57	405.19
612.916	417.96
613.261	453.7
613.607	354.12
613.952	354.12
614.298	392.42
614.643	343.91
614.989	428.17
615.334	417.96
615.679	443.49
616.024	417.96
616.369	412.85
616.714	384.76
617.059	410.3
617.404	479.24
617.749	481.79
618.094	407.74
618.439	417.96
618.784	400.08
619.129	359.23
619.473	328.59
619.818	415.4
620.163	512.43
620.507	410.3
620.852	384.76
621.196	379.66
621.54	412.85
621.885	410.3
622.229	420.51
622.573	361.78
622.918	333.69
623.262	387.32
623.606	369.44
623.95	446.04
624.294	377.1
624.638	469.02
624.982	354.12
625.326	415.4
625.67	387.32
626.013	461.36
626.357	400.08
626.701	428.17
627.044	428.17
627.388	415.4
627.731	379.66
628.075	359.23
628.418	379.66
628.762	400.08
629.105	494.56
629.448	435.83
629.792	379.66
630.135	369.44
630.478	486.9
630.821	448.6
631.164	361.78
631.507	379.66
631.85	359.23
632.193	397.53
632.536	410.3
632.879	331.14
633.221	410.3
633.564	425.62
633.907	435.83
634.249	349.01
634.592	356.67
634.935	384.76
635.277	407.74
635.619	387.32
635.962	425.62
636.304	420.51
636.646	331.14
636.989	394.98
637.331	410.3
637.673	504.77
638.015	369.44
638.357	428.17
638.699	392.42
639.041	466.47
639.383	479.24
639.725	364.34
640.067	389.87
640.408	361.78
640.75	407.74
641.092	425.62
641.433	407.74
641.775	379.66
642.116	433.28
642.458	471.58
642.799	428.17
643.141	512.43
643.482	430.72
643.823	377.1
644.164	435.83
644.506	420.51
644.847	389.87
645.188	349.01
645.529	343.91
645.87	377.1
646.211	440.94
646.552	425.62
646.893	389.87
647.233	366.89
647.574	354.12
647.915	415.4
648.255	412.85
648.596	394.98
648.937	354.12
649.277	356.67
649.618	428.17
649.958	469.02
650.298	438.38
650.639	341.35
650.979	359.23
651.319	451.15
651.659	394.98
651.999	420.51
652.339	397.53
652.679	374.55
653.019	343.91
653.359	417.96
653.699	410.3
654.039	400.08
654.379	387.32
654.719	417.96
655.058	430.72
655.398	425.62
655.737	486.9
656.077	492
656.416	410.3
656.756	405.19
657.095	372
657.435	382.21
657.774	430.72
658.113	486.9
658.452	417.96
658.792	377.1
659.131	387.32
659.47	379.66
659.809	428.17
660.148	440.94
660.487	333.69
660.826	379.66
661.164	435.83
661.503	384.76
661.842	400.08
662.181	377.1
662.519	389.87
662.858	463.92
663.196	463.92
663.535	389.87
663.873	405.19
664.212	430.72
664.55	433.28
664.888	300.5
665.226	323.48
665.565	387.32
665.903	517.54
666.241	438.38
666.579	392.42
666.917	356.67
667.255	492
667.593	366.89
667.931	435.83
668.268	417.96
668.606	405.19
668.944	400.08
669.282	410.3
669.619	361.78
669.957	374.55
670.294	361.78
670.632	456.26
670.969	379.66
671.307	397.53
671.644	320.93
671.981	392.42
672.318	448.6
672.656	384.76
672.993	333.69
673.33	448.6
673.667	341.35
674.004	425.62
674.341	453.7
674.678	407.74
675.015	394.98
675.351	402.64
675.688	407.74
676.025	433.28
676.362	425.62
676.698	469.02
677.035	407.74
677.371	435.83
677.708	402.64
678.044	397.53
678.38	435.83
678.717	384.76
679.053	387.32
679.389	423.06
679.725	451.15
680.062	366.89
680.398	397.53
680.734	400.08
681.07	438.38
681.406	379.66
681.742	364.34
682.077	415.4
682.413	430.72
682.749	420.51
683.085	410.3
683.42	377.1
683.756	397.53
684.091	359.23
684.427	364.34
684.762	369.44
685.098	364.34
685.433	369.44
685.768	369.44
686.104	407.74
686.439	410.3
686.774	356.67
687.109	405.19
687.444	440.94
687.779	384.76
688.114	430.72
688.449	410.3
688.784	366.89
689.119	374.55
689.454	412.85
689.789	379.66
690.123	466.47
690.458	354.12
690.792	428.17
691.127	397.53
691.461	369.44
691.796	372
692.13	458.81
692.465	446.04
692.799	456.26
693.133	430.72
693.467	463.92
693.802	471.58
694.136	377.1
694.47	412.85
694.804	451.15
695.138	443.49
695.472	384.76
695.806	338.8
696.139	382.21
696.473	456.26
696.807	402.64
697.141	377.1
697.474	430.72
697.808	356.67
698.141	520.09
698.475	382.21
698.808	374.55
699.142	343.91
699.475	461.36
699.808	394.98
700.142	438.38
700.475	417.96
700.808	428.17
701.141	374.55
701.474	397.53
701.807	420.51
702.14	359.23
702.473	364.34
702.806	366.89
703.139	379.66
703.472	400.08
703.804	359.23
704.137	392.42
704.47	384.76
704.802	476.68
705.135	405.19
705.467	349.01
705.8	412.85
706.132	361.78
706.464	412.85
706.797	402.64
707.129	389.87
707.461	392.42
707.793	438.38
708.125	443.49
708.457	392.42
708.789	410.3
709.121	428.17
709.453	394.98
709.785	382.21
710.117	346.46
710.449	420.51
710.781	415.4
711.112	417.96
711.444	392.42
711.775	405.19
712.107	435.83
712.438	397.53
712.77	384.76
713.101	407.74
713.433	417.96
713.764	484.34
714.095	430.72
714.426	402.64
714.757	420.51
715.089	364.34
715.42	392.42
715.751	359.23
716.082	346.46
716.412	323.48
716.743	397.53
717.074	372
717.405	400.08
717.736	333.69
718.066	356.67
718.397	369.44
718.727	402.64
719.058	481.79
719.388	382.21
719.719	405.19
720.049	349.01
720.38	372
720.71	379.66
721.04	397.53
721.37	366.89
721.7	333.69
722.031	372
722.361	446.04
722.691	410.3
723.021	400.08
723.35	423.06
723.68	438.38
724.01	377.1
724.34	364.34
724.67	415.4
724.999	412.85
725.329	435.83
725.658	410.3
725.988	428.17
726.317	417.96
726.647	423.06
726.976	417.96
727.306	410.3
727.635	451.15
727.964	425.62
728.293	407.74
728.622	354.12
728.952	456.26
729.281	425.62
729.61	433.28
729.939	486.9
730.267	382.21
730.596	448.6
730.925	397.53
731.254	377.1
731.583	428.17
731.911	372
732.24	333.69
732.568	400.08
732.897	425.62
733.225	354.12
733.554	463.92
733.882	402.64
734.21	359.23
734.539	377.1
734.867	412.85
735.195	361.78
735.523	387.32
735.851	446.04
736.179	451.15
736.507	341.35
736.835	417.96
737.163	379.66
737.491	377.1
737.819	415.4
738.147	392.42
738.474	333.69
738.802	420.51
739.13	415.4
739.457	412.85
739.785	377.1
740.112	377.1
740.44	400.08
740.767	412.85
741.094	438.38
741.422	405.19
741.749	374.55
742.076	410.3
742.403	423.06
742.73	389.87
743.057	458.81
743.384	392.42
743.711	394.98
744.038	372
744.365	481.79
744.692	446.04
745.018	463.92
745.345	494.56
745.672	412.85
745.998	446.04
746.325	448.6
746.651	397.53
746.978	397.53
747.304	351.57
747.631	361.78
747.957	446.04
748.283	430.72
748.61	425.62
748.936	417.96
749.262	438.38
749.588	438.38
749.914	394.98
750.24	397.53
750.566	400.08
750.892	384.76
751.218	405.19
751.543	382.21
751.869	420.51
752.195	389.87
752.521	402.64
752.846	387.32
753.172	377.1
753.497	425.62
753.823	405.19
754.148	372
754.473	384.76
754.799	446.04
755.124	412.85
755.449	402.64
755.774	428.17
756.1	382.21
756.425	346.46
756.75	341.35
757.075	402.64
757.4	481.79
757.724	417.96
758.049	430.72
758.374	382.21
758.699	331.14
759.024	446.04
759.348	435.83
759.673	359.23
759.997	448.6
760.322	366.89
760.646	377.1
760.971	402.64
761.295	384.76
761.619	369.44
761.944	420.51
762.268	440.94
762.592	448.6
762.916	433.28
763.24	420.51
763.564	394.98
763.888	384.76
764.212	451.15
764.536	479.24
764.86	466.47
765.184	453.7
765.508	484.34
765.831	446.04
766.155	650.31
766.478	509.88
766.802	617.12
767.126	474.13
767.449	504.77
767.772	509.88
768.096	568.61
768.419	525.2
768.742	612.01
769.066	586.48
769.389	711.59
769.712	642.65
770.035	647.76
770.358	686.06
770.681	688.61
771.004	663.08
771.327	706.49
771.65	719.25
771.972	726.91
772.295	790.75
772.618	823.94
772.941	910.76
773.263	877.56
773.586	956.72
773.908	928.63
774.231	1000.13
774.553	956.72
774.875	1079.28
775.198	1102.26
775.52	1012.89
775.842	1043.53
776.164	1000.13
776.487	989.91
776.809	992.47
777.131	1074.17
777.453	1191.63
777.775	1099.71
778.096	1120.14
778.418	1237.59
778.74	1176.31
779.062	1153.33
779.384	1240.14
779.705	1357.6
780.027	1441.86
780.348	1436.75
780.67	1431.65
780.991	1521.02
781.313	1676.77
781.634	1646.13
781.955	1587.4
782.277	1584.85
782.598	1641.02
782.919	1630.81
783.24	1635.92
783.561	1664
783.882	1635.92
784.203	1766.14
784.524	1689.54
784.845	1794.23
785.166	1661.45
785.487	1794.23
785.807	1794.23
786.128	1618.04
786.449	1658.9
786.769	1745.71
787.09	1878.49
787.41	1990.84
787.731	2184.89
788.051	2287.03
788.372	2253.83
788.692	2340.65
789.012	2396.82
789.332	2401.93
789.653	2437.68
789.973	2664.93
790.293	2575.56
790.613	2230.85
790.933	2243.62
791.253	2389.16
791.573	2417.25
791.893	2304.9
792.212	2169.57
792.532	2225.75
792.852	2146.59
793.171	2072.55
793.491	2092.97
793.811	2047.01
794.13	2029.14
794.45	1927
794.769	1850.4
795.088	1819.76
795.408	1873.38
795.727	1939.77
796.046	1934.66
796.365	1875.93
796.684	1855.51
797.004	1924.45
797.323	1972.96
797.642	2378.95
797.96	2475.98
798.279	2440.23
798.598	2358.52
798.917	2473.43
799.236	2376.4
799.554	2138.93
799.873	2049.56
800.192	2121.06
800.51	2228.3
800.829	2179.79
801.147	2108.29
801.466	2006.16
801.784	1944.88
802.102	1978.07
802.421	2215.53
802.739	2348.31
803.057	2261.49
803.375	2133.83
803.693	2220.64
804.011	2453
804.329	2498.96
804.647	2486.19
804.965	2391.72
805.283	2266.6
805.601	2085.31
805.918	2047.01
806.236	1812.1
806.554	1784.01
806.871	1916.79
807.189	1952.54
807.507	2077.65
807.824	2103.19
808.141	2001.05
808.459	1658.9
808.776	1564.42
809.093	1490.37
809.411	1416.33
809.728	1498.03
810.045	1347.39
810.362	1411.22
810.679	1487.82
810.996	1403.56
811.313	1434.2
811.63	1492.93
811.947	1431.65
812.264	1413.77
812.58	1342.28
812.897	1291.21
813.214	1334.62
813.53	1242.7
813.847	1367.81
814.163	1403.56
814.48	1316.75
814.796	1301.42
815.113	1316.75
815.429	1227.38
815.745	1183.97
816.061	1186.52
816.378	1194.18
816.694	1099.71
817.01	1074.17
817.326	1089.49
817.642	1084.39
817.958	1018
818.274	995.02
818.59	926.08
818.905	862.24
819.221	972.04
819.537	1005.23
819.852	1046.09
820.168	1000.13
820.484	1092.05
820.799	987.36
821.115	969.49
821.43	995.02
821.745	936.29
822.061	885.22
822.376	867.35
822.691	936.29
823.006	857.14
823.322	806.07
823.637	760.11
823.952	777.98
824.267	739.68
824.582	783.09
824.897	783.09
825.211	887.78
825.526	752.45
825.841	744.79
826.156	709.04
826.47	714.15
826.785	716.7
827.1	683.51
827.414	670.74
827.729	714.15
828.043	757.56
828.357	721.81
828.672	675.85
828.986	657.97
829.3	609.46
829.614	645.21
829.929	576.27
830.243	604.35
830.557	581.37
830.871	612.01
831.185	517.54
831.499	550.73
831.812	589.03
832.126	650.31
832.44	655.42
832.754	596.69
833.067	619.67
833.381	596.69
833.695	622.23
834.008	660.53
834.322	627.33
834.635	683.51
834.948	601.8
835.262	553.29
835.575	540.52
835.888	535.41
836.201	492
836.515	543.07
836.828	532.86
837.141	497.11
837.454	509.88
837.767	476.68
838.08	537.96
838.392	522.64
838.705	463.92
839.018	481.79
839.331	509.88
839.643	520.09
839.956	461.36
840.269	504.77
840.581	446.04
840.894	410.3
841.206	492
841.519	563.5
841.831	484.34
842.143	433.28
842.455	400.08
842.768	466.47
843.08	461.36
843.392	438.38
843.704	453.7
844.016	425.62
844.328	428.17
844.64	415.4
844.952	471.58
845.263	417.96
845.575	387.32
845.887	435.83
846.199	397.53
846.51	435.83
846.822	440.94
847.133	446.04
847.445	433.28
847.756	420.51
848.068	433.28
848.379	497.11
848.69	463.92
849.002	402.64
849.313	400.08
849.624	356.67
849.935	341.35
850.246	397.53
850.557	407.74
850.868	476.68
851.179	420.51
851.49	458.81
851.801	425.62
852.112	400.08
852.422	392.42
852.733	384.76
853.044	400.08
853.354	412.85
853.665	394.98
853.975	453.7
854.286	458.81
854.596	379.66
854.906	387.32
855.217	397.53
855.527	474.13
855.837	430.72
856.147	405.19
856.458	405.19
856.768	369.44
857.078	366.89
857.388	440.94
857.698	387.32
858.007	356.67
858.317	379.66
858.627	451.15
858.937	379.66
859.246	466.47
859.556	440.94
859.866	400.08
860.175	400.08
860.485	359.23
860.794	361.78
861.104	394.98
861.413	354.12
861.722	405.19
862.032	420.51
862.341	320.93
862.65	397.53
862.959	382.21
863.268	356.67
863.577	297.95
863.886	372
864.195	425.62
864.504	417.96
864.813	461.36
865.122	461.36
865.43	315.82
865.739	428.17
866.048	364.34
866.356	379.66
866.665	359.23
866.973	415.4
867.282	267.31
867.59	372
867.899	415.4
868.207	405.19
868.515	428.17
868.823	364.34
869.132	407.74
869.44	382.21
869.748	372
870.056	384.76
870.364	397.53
870.672	389.87
870.98	412.85
871.288	417.96
871.595	382.21
871.903	435.83
872.211	389.87
872.518	417.96
872.826	548.18
873.134	407.74
873.441	377.1
873.749	420.51
874.056	420.51
874.363	412.85
874.671	359.23
874.978	343.91
875.285	394.98
875.592	400.08
875.9	433.28
876.207	435.83
876.514	397.53
876.821	412.85
877.128	333.69
877.435	423.06
877.741	356.67
878.048	389.87
878.355	372
878.662	417.96
878.968	336.25
879.275	364.34
879.582	389.87
879.888	377.1
880.195	430.72
880.501	384.76
880.807	377.1
881.114	364.34
881.42	451.15
881.726	374.55
882.032	397.53
882.339	359.23
882.645	387.32
882.951	430.72
883.257	387.32
883.563	369.44
883.869	430.72
884.174	394.98
884.48	466.47
884.786	425.62
885.092	410.3
885.397	461.36
885.703	377.1
886.009	356.67
886.314	366.89
886.62	430.72
886.925	354.12
887.231	425.62
887.536	379.66
887.841	394.98
888.146	394.98
888.452	412.85
888.757	412.85
889.062	410.3
889.367	423.06
889.672	346.46
889.977	417.96
890.282	366.89
890.587	420.51
890.892	453.7
891.196	323.48
891.501	364.34
891.806	343.91
892.11	354.12
892.415	412.85
892.72	417.96
893.024	315.82
893.328	407.74
893.633	331.14
893.937	463.92
894.242	400.08
894.546	328.59
894.85	349.01
895.154	402.64
895.458	417.96
895.762	394.98
896.066	338.8
896.37	354.12
896.674	417.96
896.978	374.55
897.282	377.1
897.586	415.4
897.89	392.42
898.193	486.9
898.497	458.81
898.801	400.08
899.104	377.1
899.408	372
899.711	402.64
900.014	435.83
900.318	425.62
900.621	405.19
900.924	397.53
901.228	402.64
901.531	402.64
901.834	402.64
902.137	387.32
902.44	405.19
902.743	382.21
903.046	372
903.349	402.64
903.652	374.55
903.955	392.42
904.257	382.21
904.56	448.6
904.863	433.28
905.165	361.78
905.468	443.49
905.77	423.06
906.073	374.55
906.375	310.71
906.678	331.14
906.98	417.96
907.282	407.74
907.584	392.42
907.887	387.32
908.189	315.82
908.491	323.48
908.793	405.19
909.095	417.96
909.397	369.44
909.699	333.69
910.001	397.53
910.302	336.25
910.604	349.01
910.906	349.01
911.208	433.28
911.509	420.51
911.811	389.87
912.112	435.83
912.414	389.87
912.715	458.81
913.017	440.94
913.318	379.66
913.619	372
913.92	384.76
914.222	379.66
914.523	461.36
914.824	338.8
915.125	407.74
915.426	423.06
915.727	369.44
916.028	374.55
916.329	410.3
916.63	359.23
916.93	397.53
917.231	446.04
917.532	356.67
917.832	425.62
918.133	338.8
918.434	389.87
918.734	387.32
919.034	389.87
919.335	387.32
919.635	446.04
919.935	420.51
920.236	435.83
920.536	303.05
920.836	400.08
921.136	382.21
921.436	537.96
921.736	428.17
922.036	392.42
922.336	410.3
922.636	249.43
922.936	392.42
923.236	379.66
923.535	372
923.835	323.48
924.135	356.67
924.434	433.28
924.734	364.34
925.033	417.96
925.333	412.85
925.632	359.23
925.932	377.1
926.231	351.57
926.53	410.3
926.83	402.64
927.129	349.01
927.428	338.8
927.727	417.96
928.026	359.23
928.325	377.1
928.624	359.23
928.923	394.98
929.222	425.62
929.52	359.23
929.819	379.66
930.118	359.23
930.417	387.32
930.715	407.74
931.014	410.3
931.312	461.36
931.611	379.66
931.909	400.08
932.207	394.98
932.506	349.01
932.804	400.08
933.102	420.51
933.401	364.34
933.699	412.85
933.997	328.59
934.295	313.27
934.593	328.59
934.891	428.17
935.189	356.67
935.487	415.4
935.784	474.13
936.082	410.3
936.38	425.62
936.677	384.76
936.975	305.61
937.273	346.46
937.57	379.66
937.868	417.96
938.165	366.89
938.463	349.01
938.76	364.34
939.057	400.08
939.354	481.79
939.652	394.98
939.949	405.19
940.246	382.21
940.543	369.44
940.84	389.87
941.137	392.42
941.434	407.74
941.731	392.42
942.028	374.55
942.324	415.4
942.621	366.89
942.918	359.23
943.214	438.38
943.511	356.67
943.807	443.49
944.104	374.55
944.4	379.66
944.697	451.15
944.993	389.87
945.29	341.35
945.586	397.53
945.882	349.01
946.178	389.87
946.474	374.55
946.77	320.93
947.066	435.83
947.362	425.62
947.658	359.23
947.954	397.53
948.25	402.64
948.546	397.53
948.842	412.85
949.137	435.83
949.433	374.55
949.729	382.21
950.024	328.59
950.32	372
950.615	463.92
950.91	387.32
951.206	463.92
951.501	364.34
951.796	402.64
952.092	387.32
952.387	420.51
952.682	372
952.977	372
953.272	423.06
953.567	425.62
953.862	389.87
954.157	412.85
954.452	402.64
954.747	417.96
955.041	387.32
955.336	405.19
955.631	397.53
955.925	443.49
956.22	400.08
956.514	405.19
956.809	356.67
957.103	440.94
957.398	387.32
957.692	338.8
957.986	397.53
958.281	354.12
958.575	364.34
958.869	405.19
959.163	349.01
959.457	405.19
959.751	453.7
960.045	417.96
960.339	372
960.633	410.3
960.927	428.17
961.221	428.17
961.514	415.4
961.808	387.32
962.102	481.79
962.395	323.48
962.689	394.98
962.982	382.21
963.276	435.83
963.569	349.01
963.862	443.49
964.156	377.1
964.449	346.46
964.742	361.78
965.035	425.62
965.328	402.64
965.622	456.26
965.915	430.72
966.208	407.74
966.5	356.67
966.793	417.96
967.086	433.28
967.379	359.23
967.672	415.4
967.964	394.98
968.257	410.3
968.55	458.81
968.842	451.15
969.135	361.78
969.427	423.06
969.72	297.95
970.012	415.4
970.304	471.58
970.597	351.57
970.889	407.74
971.181	389.87
971.473	361.78
971.765	466.47
972.057	428.17
972.349	364.34
972.641	425.62
972.933	372
973.225	469.02
973.517	435.83
973.809	417.96
974.1	433.28
974.392	407.74
974.684	430.72
974.975	423.06
975.267	415.4
975.558	423.06
975.85	425.62
976.141	430.72
976.432	377.1
976.724	382.21
977.015	361.78
977.306	372
977.597	400.08
977.888	379.66
978.179	412.85
978.47	407.74
978.761	387.32
979.052	400.08
979.343	354.12
979.634	382.21
979.925	349.01
980.215	405.19
980.506	415.4
980.797	402.64
981.087	417.96
981.378	379.66
981.668	331.14
981.959	402.64
982.249	336.25
982.54	394.98
982.83	415.4
983.12	377.1
983.41	433.28
983.701	415.4
983.991	433.28
984.281	372
984.571	410.3
984.861	448.6
985.151	438.38
985.441	443.49
985.73	412.85
986.02	374.55
986.31	369.44
986.6	389.87
986.889	387.32
987.179	453.7
987.469	351.57
987.758	405.19
988.048	420.51
988.337	394.98
988.626	377.1
988.916	407.74
989.205	397.53
989.494	420.51
989.783	356.67
990.073	420.51
990.362	384.76
990.651	359.23
990.94	425.62
991.229	354.12
991.518	425.62
991.806	361.78
992.095	384.76
992.384	341.35
992.673	423.06
992.961	372
993.25	392.42
993.539	392.42
993.827	382.21
994.116	453.7
994.404	412.85
994.692	458.81
994.981	361.78
995.269	336.25
995.557	361.78
995.846	346.46
996.134	389.87
996.422	407.74
996.71	374.55
996.998	336.25
997.286	446.04
997.574	389.87
997.862	415.4
998.15	438.38
998.437	430.72
998.725	346.46
999.013	420.51
999.3	428.17
999.588	379.66
999.876	379.66
1000.163	369.44
1000.45	410.3
1000.738	400.08
1001.025	384.76
1001.313	410.3
1001.6	425.62
1001.887	354.12
1002.174	354.12
1002.461	387.32
1002.748	405.19
1003.036	392.42
1003.322	377.1
1003.609	433.28
1003.896	364.34
1004.183	392.42
1004.47	372
1004.757	410.3
1005.043	341.35
1005.33	346.46
1005.617	377.1
1005.903	356.67
1006.19	440.94
1006.476	407.74
1006.763	430.72
1007.049	430.72
1007.335	435.83
1007.622	420.51
1007.908	456.26
1008.194	379.66
1008.48	354.12
1008.766	392.42
1009.053	400.08
1009.339	397.53
1009.625	369.44
1009.91	469.02
1010.196	469.02
1010.482	364.34
1010.768	420.51
1011.054	354.12
1011.339	410.3
1011.625	364.34
1011.911	387.32
1012.196	384.76
1012.482	356.67
1012.767	379.66
1013.052	428.17
1013.338	410.3
1013.623	423.06
1013.908	400.08
1014.194	456.26
1014.479	425.62
1014.764	405.19
1015.049	356.67
1015.334	420.51
1015.619	351.57
1015.904	341.35
1016.189	366.89
1016.474	359.23
1016.758	374.55
1017.043	387.32
1017.328	361.78
1017.613	394.98
1017.897	394.98
1018.182	392.42
1018.466	405.19
1018.751	433.28
1019.035	407.74
1019.32	331.14
1019.604	346.46
1019.888	382.21
1020.172	382.21
1020.457	382.21
