Data from 2025-12-03_xpw_interference_micrometer_634_dark_FLMS141361__57__207.txt Node

Date: Wed Dec 03 15:50:05 MST 2025
User: james
Spectrometer: FLMS14136
Trigger mode: 0
Integration Time (sec): 1.000000E-1
Scans to average: 1
Electric dark correction enabled: true
Nonlinearity correction enabled: false
Boxcar width: 0
XAxis mode: Wavelengths
Number of Pixels in Spectrum: 2048
>>>>>Begin Spectral Data<<<<<
339.315	-15.48
339.697	-15.48
340.079	-15.48
340.461	-132.94
340.843	-135.49
341.225	-76.76
341.607	-109.95
341.989	-81.87
342.371	-94.63
342.752	-120.17
343.134	-92.08
343.516	20.27
343.897	-38.46
344.279	-33.35
344.661	15.16
345.042	17.71
345.423	38.14
345.805	112.19
346.186	79
346.567	188.79
346.949	176.02
347.33	211.77
347.711	211.77
348.092	211.77
348.473	234.75
348.854	296.03
349.235	267.95
349.616	278.16
349.997	334.33
350.378	359.87
350.758	375.19
351.139	372.63
351.52	341.99
351.9	370.08
352.281	362.42
352.661	359.87
353.042	367.53
353.422	439.02
353.803	433.91
354.183	418.59
354.563	423.7
354.943	405.83
355.324	395.61
355.704	454.34
356.084	395.61
356.464	387.95
356.844	513.07
357.224	431.36
357.603	398.17
357.983	385.4
358.363	451.79
358.743	362.42
359.122	387.95
359.502	405.83
359.882	400.72
360.261	398.17
360.641	372.63
361.02	339.44
361.399	375.19
361.779	398.17
362.158	400.72
362.537	403.27
362.916	326.67
363.296	375.19
363.675	400.72
364.054	331.78
364.433	321.57
364.812	339.44
365.19	390.51
365.569	387.95
365.948	413.49
366.327	449.23
366.705	382.85
367.084	326.67
367.463	359.87
367.841	367.53
368.22	410.93
368.598	505.41
368.977	364.97
369.355	372.63
369.733	380.29
370.111	336.89
370.49	311.35
370.868	293.48
371.246	311.35
371.624	408.38
372.002	339.44
372.38	377.74
372.758	354.76
373.136	352.21
373.513	380.29
373.891	367.53
374.269	400.72
374.646	324.12
375.024	275.61
375.402	367.53
375.779	436.47
376.157	398.17
376.534	395.61
376.911	400.72
377.289	329.23
377.666	319.01
378.043	370.08
378.42	359.87
378.797	382.85
379.175	367.53
379.552	377.74
379.929	408.38
380.305	367.53
380.682	367.53
381.059	421.15
381.436	462
381.813	364.97
382.189	359.87
382.566	400.72
382.943	398.17
383.319	433.91
383.696	385.4
384.072	321.57
384.448	403.27
384.825	380.29
385.201	377.74
385.577	385.4
385.953	469.66
386.329	413.49
386.706	352.21
387.082	472.22
387.458	354.76
387.834	334.33
388.209	336.89
388.585	352.21
388.961	372.63
389.337	354.76
389.713	426.25
390.088	308.8
390.464	413.49
390.839	403.27
391.215	380.29
391.59	380.29
391.966	377.74
392.341	398.17
392.716	393.06
393.092	316.46
393.467	387.95
393.842	385.4
394.217	436.47
394.592	418.59
394.967	416.04
395.342	375.19
395.717	364.97
396.092	446.68
396.467	385.4
396.841	375.19
397.216	446.68
397.591	410.93
397.965	385.4
398.34	370.08
398.714	375.19
399.089	385.4
399.463	311.35
399.838	431.36
400.212	418.59
400.586	456.9
400.961	462
401.335	413.49
401.709	382.85
402.083	334.33
402.457	400.72
402.831	413.49
403.205	444.13
403.579	423.7
403.953	329.23
404.326	423.7
404.7	331.78
405.074	393.06
405.447	372.63
405.821	439.02
406.195	423.7
406.568	408.38
406.942	347.1
407.315	413.49
407.688	400.72
408.062	449.23
408.435	492.64
408.808	446.68
409.181	393.06
409.554	428.81
409.927	395.61
410.3	398.17
410.673	380.29
411.046	341.99
411.419	416.04
411.792	390.51
412.165	390.51
412.537	403.27
412.91	382.85
413.283	410.93
413.655	433.91
414.028	336.89
414.4	444.13
414.773	439.02
415.145	433.91
415.517	403.27
415.889	416.04
416.262	372.63
416.634	421.15
417.006	428.81
417.378	469.66
417.75	426.25
418.122	423.7
418.494	377.74
418.866	354.76
419.238	344.55
419.609	370.08
419.981	495.2
420.353	482.43
420.725	395.61
421.096	441.57
421.468	393.06
421.839	433.91
422.211	347.1
422.582	359.87
422.953	367.53
423.325	449.23
423.696	423.7
424.067	390.51
424.438	433.91
424.809	410.93
425.18	451.79
425.551	418.59
425.922	439.02
426.293	418.59
426.664	454.34
427.035	464.56
427.406	405.83
427.776	416.04
428.147	477.32
428.518	408.38
428.888	439.02
429.259	421.15
429.629	441.57
429.999	395.61
430.37	375.19
430.74	431.36
431.11	357.31
431.481	331.78
431.851	410.93
432.221	487.54
432.591	398.17
432.961	390.51
433.331	403.27
433.701	439.02
434.071	436.47
434.441	405.83
434.81	408.38
435.18	377.74
435.55	390.51
435.919	436.47
436.289	385.4
436.658	441.57
437.028	492.64
437.397	479.88
437.767	375.19
438.136	359.87
438.505	408.38
438.875	403.27
439.244	390.51
439.613	436.47
439.982	454.34
440.351	441.57
440.72	377.74
441.089	423.7
441.458	446.68
441.827	413.49
442.196	418.59
442.564	426.25
442.933	464.56
443.302	431.36
443.67	459.45
444.039	380.29
444.407	472.22
444.776	393.06
445.144	439.02
445.513	472.22
445.881	490.09
446.249	495.2
446.617	393.06
446.986	426.25
447.354	423.7
447.722	451.79
448.09	413.49
448.458	464.56
448.826	492.64
449.194	454.34
449.561	387.95
449.929	408.38
450.297	387.95
450.665	372.63
451.032	433.91
451.4	497.75
451.767	462
452.135	441.57
452.502	444.13
452.87	408.38
453.237	344.55
453.604	393.06
453.971	439.02
454.339	459.45
454.706	400.72
455.073	410.93
455.44	423.7
455.807	431.36
456.174	395.61
456.541	403.27
456.908	423.7
457.274	382.85
457.641	469.66
458.008	456.9
458.374	449.23
458.741	398.17
459.108	408.38
459.474	410.93
459.841	451.79
460.207	441.57
460.573	477.32
460.94	467.11
461.306	449.23
461.672	464.56
462.038	454.34
462.404	380.29
462.771	431.36
463.137	395.61
463.503	408.38
463.868	413.49
464.234	387.95
464.6	403.27
464.966	431.36
465.332	395.61
465.697	449.23
466.063	446.68
466.429	449.23
466.794	423.7
467.16	431.36
467.525	436.47
467.89	446.68
468.256	436.47
468.621	439.02
468.986	459.45
469.351	344.55
469.717	436.47
470.082	395.61
470.447	467.11
470.812	410.93
471.177	364.97
471.542	487.54
471.906	410.93
472.271	410.93
472.636	428.81
473.001	441.57
473.365	400.72
473.73	387.95
474.094	418.59
474.459	482.43
474.823	449.23
475.188	428.81
475.552	370.08
475.917	436.47
476.281	449.23
476.645	380.29
477.009	370.08
477.373	464.56
477.737	462
478.101	410.93
478.465	423.7
478.829	367.53
479.193	423.7
479.557	413.49
479.921	433.91
480.284	418.59
480.648	431.36
481.012	393.06
481.375	413.49
481.739	444.13
482.102	416.04
482.466	393.06
482.829	423.7
483.193	433.91
483.556	433.91
483.919	390.51
484.282	464.56
484.645	382.85
485.009	428.81
485.372	479.88
485.735	382.85
486.098	433.91
486.46	433.91
486.823	364.97
487.186	370.08
487.549	495.2
487.912	408.38
488.274	398.17
488.637	431.36
488.999	382.85
489.362	469.66
489.724	472.22
490.087	395.61
490.449	403.27
490.811	546.26
491.174	456.9
491.536	372.63
491.898	462
492.26	393.06
492.622	413.49
492.984	405.83
493.346	408.38
493.708	464.56
494.07	336.89
494.432	408.38
494.794	416.04
495.155	421.15
495.517	403.27
495.879	492.64
496.24	385.4
496.602	431.36
496.963	357.31
497.325	413.49
497.686	444.13
498.048	416.04
498.409	449.23
498.77	410.93
499.131	454.34
499.492	413.49
499.854	421.15
500.215	416.04
500.576	372.63
500.937	439.02
501.298	418.59
501.658	444.13
502.019	410.93
502.38	393.06
502.741	487.54
503.101	385.4
503.462	398.17
503.823	439.02
504.183	387.95
504.543	359.87
504.904	375.19
505.264	446.68
505.625	400.72
505.985	462
506.345	449.23
506.705	441.57
507.065	467.11
507.426	428.81
507.786	403.27
508.146	426.25
508.505	444.13
508.865	364.97
509.225	441.57
509.585	484.98
509.945	375.19
510.304	459.45
510.664	395.61
511.024	408.38
511.383	479.88
511.743	441.57
512.102	462
512.462	446.68
512.821	421.15
513.18	410.93
513.539	362.42
513.899	469.66
514.258	400.72
514.617	403.27
514.976	449.23
515.335	433.91
515.694	410.93
516.053	444.13
516.412	418.59
516.771	395.61
517.129	418.59
517.488	423.7
517.847	352.21
518.205	416.04
518.564	405.83
518.922	462
519.281	393.06
519.639	469.66
519.998	416.04
520.356	370.08
520.714	403.27
521.073	474.77
521.431	364.97
521.789	426.25
522.147	454.34
522.505	433.91
522.863	393.06
523.221	421.15
523.579	482.43
523.937	408.38
524.295	377.74
524.652	418.59
525.01	449.23
525.368	418.59
525.725	446.68
526.083	421.15
526.44	436.47
526.798	431.36
527.155	446.68
527.513	431.36
527.87	398.17
528.227	410.93
528.584	449.23
528.942	487.54
529.299	408.38
529.656	405.83
530.013	393.06
530.37	405.83
530.727	477.32
531.083	451.79
531.44	451.79
531.797	479.88
532.154	385.4
532.511	354.76
532.867	372.63
533.224	454.34
533.58	421.15
533.937	416.04
534.293	523.28
534.65	408.38
535.006	387.95
535.362	428.81
535.718	456.9
536.075	479.88
536.431	395.61
536.787	451.79
537.143	446.68
537.499	410.93
537.855	364.97
538.211	410.93
538.567	321.57
538.923	431.36
539.278	428.81
539.634	390.51
539.99	428.81
540.345	418.59
540.701	418.59
541.056	354.76
541.412	428.81
541.767	456.9
542.123	462
542.478	467.11
542.833	441.57
543.188	416.04
543.544	380.29
543.899	525.84
544.254	451.79
544.609	418.59
544.964	410.93
545.319	408.38
545.674	490.09
546.029	449.23
546.383	482.43
546.738	418.59
547.093	416.04
547.447	410.93
547.802	405.83
548.157	413.49
548.511	426.25
548.866	462
549.22	433.91
549.574	359.87
549.929	479.88
550.283	441.57
550.637	387.95
550.991	469.66
551.345	398.17
551.699	421.15
552.053	398.17
552.407	467.11
552.761	441.57
553.115	446.68
553.469	464.56
553.823	416.04
554.176	416.04
554.53	413.49
554.884	451.79
555.237	607.54
555.591	410.93
555.944	467.11
556.298	439.02
556.651	479.88
557.005	393.06
557.358	336.89
557.711	436.47
558.064	400.72
558.417	385.4
558.771	474.77
559.124	436.47
559.477	405.83
559.83	454.34
560.182	421.15
560.535	444.13
560.888	390.51
561.241	385.4
561.594	479.88
561.946	423.7
562.299	484.98
562.651	459.45
563.004	456.9
563.356	482.43
563.709	387.95
564.061	418.59
564.413	426.25
564.766	456.9
565.118	413.49
565.47	400.72
565.822	421.15
566.174	421.15
566.526	446.68
566.878	439.02
567.23	423.7
567.582	433.91
567.934	428.81
568.286	446.68
568.638	431.36
568.989	439.02
569.341	469.66
569.693	390.51
570.044	405.83
570.396	413.49
570.747	395.61
571.098	390.51
571.45	423.7
571.801	462
572.152	408.38
572.504	492.64
572.855	510.52
573.206	377.74
573.557	449.23
573.908	421.15
574.259	408.38
574.61	405.83
574.961	390.51
575.311	416.04
575.662	464.56
576.013	487.54
576.364	431.36
576.714	362.42
577.065	431.36
577.415	403.27
577.766	421.15
578.116	449.23
578.467	418.59
578.817	377.74
579.167	423.7
579.518	500.3
579.868	436.47
580.218	482.43
580.568	456.9
580.918	393.06
581.268	416.04
581.618	344.55
581.968	321.57
582.318	431.36
582.668	444.13
583.017	421.15
583.367	467.11
583.717	408.38
584.066	439.02
584.416	464.56
584.765	479.88
585.115	431.36
585.464	349.65
585.814	385.4
586.163	377.74
586.512	446.68
586.862	428.81
587.211	352.21
587.56	421.15
587.909	462
588.258	410.93
588.607	416.04
588.956	439.02
589.305	382.85
589.654	423.7
590.002	428.81
590.351	446.68
590.7	421.15
591.048	367.53
591.397	428.81
591.746	426.25
592.094	497.75
592.443	464.56
592.791	436.47
593.139	441.57
593.488	441.57
593.836	375.19
594.184	408.38
594.532	441.57
594.88	449.23
595.228	387.95
595.576	497.75
595.924	451.79
596.272	398.17
596.62	426.25
596.968	390.51
597.316	426.25
597.664	403.27
598.011	375.19
598.359	462
598.706	393.06
599.054	400.72
599.402	377.74
599.749	390.51
600.096	408.38
600.444	495.2
600.791	449.23
601.138	390.51
601.485	423.7
601.833	385.4
602.18	413.49
602.527	380.29
602.874	413.49
603.221	387.95
603.568	436.47
603.914	423.7
604.261	474.77
604.608	474.77
604.955	390.51
605.301	436.47
605.648	387.95
605.995	469.66
606.341	352.21
606.688	418.59
607.034	416.04
607.38	410.93
607.727	446.68
608.073	408.38
608.419	416.04
608.765	446.68
609.112	464.56
609.458	472.22
609.804	410.93
610.15	390.51
610.496	416.04
610.842	439.02
611.187	398.17
611.533	423.7
611.879	479.88
612.225	416.04
612.57	431.36
612.916	385.4
613.261	469.66
613.607	426.25
613.952	456.9
614.298	413.49
614.643	410.93
614.989	431.36
615.334	390.51
615.679	400.72
616.024	377.74
616.369	413.49
616.714	387.95
617.059	490.09
617.404	428.81
617.749	482.43
618.094	449.23
618.439	405.83
618.784	405.83
619.129	354.76
619.473	423.7
619.818	339.44
620.163	441.57
620.507	421.15
620.852	380.29
621.196	408.38
621.54	433.91
621.885	418.59
622.229	387.95
622.573	387.95
622.918	400.72
623.262	382.85
623.606	416.04
623.95	441.57
624.294	416.04
624.638	393.06
624.982	418.59
625.326	436.47
625.67	413.49
626.013	431.36
626.357	449.23
626.701	319.01
627.044	456.9
627.388	439.02
627.731	439.02
628.075	400.72
628.418	423.7
628.762	395.61
629.105	400.72
629.448	385.4
629.792	433.91
630.135	439.02
630.478	405.83
630.821	428.81
631.164	380.29
631.507	444.13
631.85	436.47
632.193	436.47
632.536	405.83
632.879	444.13
633.221	413.49
633.564	436.47
633.907	400.72
634.249	400.72
634.592	449.23
634.935	423.7
635.277	395.61
635.619	439.02
635.962	265.39
636.304	410.93
636.646	474.77
636.989	364.97
637.331	426.25
637.673	405.83
638.015	444.13
638.357	428.81
638.699	375.19
639.041	405.83
639.383	410.93
639.725	347.1
640.067	426.25
640.408	456.9
640.75	364.97
641.092	352.21
641.433	390.51
641.775	421.15
642.116	390.51
642.458	441.57
642.799	479.88
643.141	495.2
643.482	459.45
643.823	398.17
644.164	490.09
644.506	543.71
644.847	469.66
645.188	456.9
645.529	416.04
645.87	421.15
646.211	444.13
646.552	375.19
646.893	446.68
647.233	482.43
647.574	495.2
647.915	398.17
648.255	421.15
648.596	395.61
648.937	418.59
649.277	428.81
649.618	380.29
649.958	433.91
650.298	436.47
650.639	410.93
650.979	405.83
651.319	413.49
651.659	377.74
651.999	375.19
652.339	454.34
652.679	441.57
653.019	479.88
653.359	446.68
653.699	416.04
654.039	433.91
654.379	398.17
654.719	421.15
655.058	426.25
655.398	462
655.737	525.84
656.077	467.11
656.416	393.06
656.756	344.55
657.095	377.74
657.435	449.23
657.774	421.15
658.113	403.27
658.452	395.61
658.792	385.4
659.131	436.47
659.47	433.91
659.809	423.7
660.148	426.25
660.487	421.15
660.826	385.4
661.164	398.17
661.503	408.38
661.842	421.15
662.181	418.59
662.519	436.47
662.858	426.25
663.196	421.15
663.535	382.85
663.873	410.93
664.212	416.04
664.55	421.15
664.888	367.53
665.226	367.53
665.565	387.95
665.903	574.35
666.241	469.66
666.579	405.83
666.917	405.83
667.255	446.68
667.593	433.91
667.931	421.15
668.268	477.32
668.606	380.29
668.944	385.4
669.282	418.59
669.619	413.49
669.957	400.72
670.294	387.95
670.632	477.32
670.969	416.04
671.307	408.38
671.644	428.81
671.981	441.57
672.318	416.04
672.656	400.72
672.993	436.47
673.33	395.61
673.667	413.49
674.004	441.57
674.341	418.59
674.678	421.15
675.015	436.47
675.351	428.81
675.688	423.7
676.025	472.22
676.362	408.38
676.698	441.57
677.035	482.43
677.371	418.59
677.708	372.63
678.044	395.61
678.38	439.02
678.717	341.99
679.053	390.51
679.389	479.88
679.725	472.22
680.062	446.68
680.398	439.02
680.734	413.49
681.07	431.36
681.406	398.17
681.742	359.87
682.077	359.87
682.413	377.74
682.749	423.7
683.085	410.93
683.42	367.53
683.756	403.27
684.091	400.72
684.427	413.49
684.762	423.7
685.098	441.57
685.433	439.02
685.768	393.06
686.104	433.91
686.439	408.38
686.774	413.49
687.109	492.64
687.444	428.81
687.779	464.56
688.114	390.51
688.449	418.59
688.784	444.13
689.119	400.72
689.454	382.85
689.789	403.27
690.123	513.07
690.458	454.34
690.792	433.91
691.127	433.91
691.461	423.7
691.796	336.89
692.13	464.56
692.465	433.91
692.799	377.74
693.133	382.85
693.467	441.57
693.802	382.85
694.136	341.99
694.47	441.57
694.804	382.85
695.138	525.84
695.472	413.49
695.806	423.7
696.139	413.49
696.473	393.06
696.807	408.38
697.141	433.91
697.474	454.34
697.808	433.91
698.141	341.99
698.475	349.65
698.808	444.13
699.142	387.95
699.475	413.49
699.808	433.91
700.142	454.34
700.475	372.63
700.808	462
701.141	459.45
701.474	433.91
701.807	444.13
702.14	362.42
702.473	393.06
702.806	400.72
703.139	382.85
703.472	495.2
703.804	403.27
704.137	439.02
704.47	331.78
704.802	393.06
705.135	418.59
705.467	433.91
705.8	380.29
706.132	423.7
706.464	469.66
706.797	410.93
707.129	362.42
707.461	418.59
707.793	393.06
708.125	421.15
708.457	377.74
708.789	341.99
709.121	400.72
709.453	439.02
709.785	444.13
710.117	390.51
710.449	403.27
710.781	413.49
711.112	451.79
711.444	398.17
711.775	474.77
712.107	393.06
712.438	454.34
712.77	423.7
713.101	472.22
713.433	408.38
713.764	377.74
714.095	433.91
714.426	444.13
714.757	403.27
715.089	400.72
715.42	431.36
715.751	484.98
716.082	372.63
716.412	393.06
716.743	352.21
717.074	433.91
717.405	433.91
717.736	428.81
718.066	495.2
718.397	423.7
718.727	418.59
719.058	362.42
719.388	370.08
719.719	428.81
720.049	393.06
720.38	472.22
720.71	408.38
721.04	377.74
721.37	400.72
721.7	377.74
722.031	418.59
722.361	441.57
722.691	380.29
723.021	423.7
723.35	380.29
723.68	421.15
724.01	423.7
724.34	413.49
724.67	393.06
724.999	367.53
725.329	413.49
725.658	403.27
725.988	484.98
726.317	393.06
726.647	441.57
726.976	423.7
727.306	454.34
727.635	433.91
727.964	444.13
728.293	398.17
728.622	423.7
728.952	423.7
729.281	454.34
729.61	433.91
729.939	416.04
730.267	428.81
730.596	393.06
730.925	403.27
731.254	444.13
731.583	431.36
731.911	431.36
732.24	428.81
732.568	433.91
732.897	341.99
733.225	459.45
733.554	372.63
733.882	410.93
734.21	393.06
734.539	382.85
734.867	431.36
735.195	413.49
735.523	479.88
735.851	423.7
736.179	444.13
736.507	418.59
736.835	433.91
737.163	385.4
737.491	418.59
737.819	444.13
738.147	405.83
738.474	367.53
738.802	451.79
739.13	400.72
739.457	428.81
739.785	410.93
740.112	380.29
740.44	403.27
740.767	321.57
741.094	400.72
741.422	428.81
741.749	393.06
742.076	362.42
742.403	382.85
742.73	387.95
743.057	400.72
743.384	464.56
743.711	413.49
744.038	382.85
744.365	395.61
744.692	444.13
745.018	403.27
745.345	413.49
745.672	454.34
745.998	410.93
746.325	428.81
746.651	362.42
746.978	444.13
747.304	372.63
747.631	408.38
747.957	421.15
748.283	454.34
748.61	408.38
748.936	403.27
749.262	431.36
749.588	408.38
749.914	449.23
750.24	370.08
750.566	393.06
750.892	449.23
751.218	390.51
751.543	416.04
751.869	454.34
752.195	341.99
752.521	395.61
752.846	393.06
753.172	390.51
753.497	428.81
753.823	372.63
754.148	339.44
754.473	377.74
754.799	377.74
755.124	441.57
755.449	362.42
755.774	444.13
756.1	410.93
756.425	400.72
756.75	382.85
757.075	459.45
757.4	515.62
757.724	398.17
758.049	413.49
758.374	341.99
758.699	446.68
759.024	418.59
759.348	400.72
759.673	433.91
759.997	362.42
760.322	421.15
760.646	431.36
760.971	372.63
761.295	403.27
761.619	393.06
761.944	377.74
762.268	423.7
762.592	408.38
762.916	326.67
763.24	362.42
763.564	370.08
763.888	423.7
764.212	405.83
764.536	370.08
764.86	439.02
765.184	439.02
765.508	444.13
765.831	421.15
766.155	622.86
766.478	462
766.802	344.55
767.126	387.95
767.449	433.91
767.772	390.51
768.096	444.13
768.419	400.72
768.742	370.08
769.066	367.53
769.389	423.7
769.712	408.38
770.035	372.63
770.358	423.7
770.681	426.25
771.004	449.23
771.327	405.83
771.65	382.85
771.972	439.02
772.295	390.51
772.618	370.08
772.941	385.4
773.263	403.27
773.586	390.51
773.908	387.95
774.231	372.63
774.553	421.15
774.875	469.66
775.198	469.66
775.52	359.87
775.842	444.13
776.164	428.81
776.487	349.65
776.809	416.04
777.131	428.81
777.453	403.27
777.775	359.87
778.096	357.31
778.418	426.25
778.74	375.19
779.062	413.49
779.384	367.53
779.705	359.87
780.027	462
780.348	400.72
780.67	362.42
780.991	370.08
781.313	393.06
781.634	423.7
781.955	321.57
782.277	418.59
782.598	382.85
782.919	398.17
783.24	362.42
783.561	433.91
783.882	446.68
784.203	444.13
784.524	359.87
784.845	479.88
785.166	454.34
785.487	426.25
785.807	428.81
786.128	418.59
786.449	380.29
786.769	418.59
787.09	370.08
787.41	334.33
787.731	451.79
788.051	423.7
788.372	390.51
788.692	362.42
789.012	410.93
789.332	408.38
789.653	393.06
789.973	377.74
790.293	439.02
790.613	423.7
790.933	410.93
791.253	403.27
791.573	400.72
791.893	472.22
792.212	423.7
792.532	387.95
792.852	423.7
793.171	449.23
793.491	479.88
793.811	393.06
794.13	395.61
794.45	398.17
794.769	436.47
795.088	441.57
795.408	439.02
795.727	370.08
796.046	421.15
796.365	416.04
796.684	352.21
797.004	416.04
797.323	403.27
797.642	433.91
797.96	426.25
798.279	408.38
798.598	390.51
798.917	413.49
799.236	423.7
799.554	364.97
799.873	400.72
800.192	428.81
800.51	403.27
800.829	454.34
801.147	400.72
801.466	372.63
801.784	416.04
802.102	428.81
802.421	484.98
802.739	326.67
803.057	464.56
803.375	380.29
803.693	400.72
804.011	418.59
804.329	405.83
804.647	444.13
804.965	484.98
805.283	377.74
805.601	482.43
805.918	416.04
806.236	428.81
806.554	387.95
806.871	329.23
807.189	387.95
807.507	436.47
807.824	410.93
808.141	395.61
808.459	382.85
808.776	456.9
809.093	405.83
809.411	433.91
809.728	451.79
810.045	398.17
810.362	370.08
810.679	467.11
810.996	398.17
811.313	428.81
811.63	421.15
811.947	377.74
812.264	359.87
812.58	390.51
812.897	364.97
813.214	464.56
813.53	375.19
813.847	398.17
814.163	341.99
814.48	462
814.796	464.56
815.113	359.87
815.429	395.61
815.745	398.17
816.061	495.2
816.378	393.06
816.694	490.09
817.01	441.57
817.326	400.72
817.642	398.17
817.958	413.49
818.274	426.25
818.59	418.59
818.905	444.13
819.221	405.83
819.537	413.49
819.852	359.87
820.168	410.93
820.484	418.59
820.799	421.15
821.115	413.49
821.43	367.53
821.745	398.17
822.061	441.57
822.376	418.59
822.691	377.74
823.006	462
823.322	364.97
823.637	393.06
823.952	380.29
824.267	400.72
824.582	413.49
824.897	380.29
825.211	418.59
825.526	444.13
825.841	413.49
826.156	393.06
826.47	500.3
826.785	462
827.1	398.17
827.414	387.95
827.729	423.7
828.043	421.15
828.357	454.34
828.672	426.25
828.986	390.51
829.3	382.85
829.614	423.7
829.929	403.27
830.243	410.93
830.557	459.45
830.871	433.91
831.185	367.53
831.499	413.49
831.812	433.91
832.126	364.97
832.44	382.85
832.754	400.72
833.067	418.59
833.381	387.95
833.695	390.51
834.008	428.81
834.322	433.91
834.635	370.08
834.948	395.61
835.262	408.38
835.575	426.25
835.888	382.85
836.201	372.63
836.515	446.68
836.828	410.93
837.141	380.29
837.454	439.02
837.767	464.56
838.08	405.83
838.392	387.95
838.705	372.63
839.018	441.57
839.331	444.13
839.643	462
839.956	390.51
840.269	367.53
840.581	403.27
840.894	423.7
841.206	428.81
841.519	546.26
841.831	492.64
842.143	418.59
842.455	428.81
842.768	426.25
843.08	439.02
843.392	372.63
843.704	370.08
844.016	349.65
844.328	441.57
844.64	451.79
844.952	439.02
845.263	403.27
845.575	474.77
845.887	377.74
846.199	439.02
846.51	431.36
846.822	433.91
847.133	439.02
847.445	339.44
847.756	400.72
848.068	423.7
848.379	433.91
848.69	451.79
849.002	403.27
849.313	398.17
849.624	408.38
849.935	444.13
850.246	449.23
850.557	408.38
850.868	436.47
851.179	370.08
851.49	372.63
851.801	436.47
852.112	441.57
852.422	441.57
852.733	474.77
853.044	439.02
853.354	431.36
853.665	439.02
853.975	495.2
854.286	382.85
854.596	410.93
854.906	418.59
855.217	421.15
855.527	382.85
855.837	433.91
856.147	398.17
856.458	344.55
856.768	403.27
857.078	413.49
857.388	464.56
857.698	405.83
858.007	364.97
858.317	479.88
858.627	444.13
858.937	464.56
859.246	400.72
859.556	375.19
859.866	405.83
860.175	362.42
860.485	387.95
860.794	357.31
861.104	380.29
861.413	426.25
861.722	398.17
862.032	390.51
862.341	370.08
862.65	347.1
862.959	477.32
863.268	416.04
863.577	393.06
863.886	398.17
864.195	467.11
864.504	375.19
864.813	436.47
865.122	398.17
865.43	416.04
865.739	436.47
866.048	436.47
866.356	416.04
866.665	426.25
866.973	482.43
867.282	441.57
867.59	370.08
867.899	410.93
868.207	410.93
868.515	423.7
868.823	382.85
869.132	551.37
869.44	413.49
869.748	408.38
870.056	387.95
870.364	398.17
870.672	400.72
870.98	382.85
871.288	426.25
871.595	441.57
871.903	410.93
872.211	423.7
872.518	495.2
872.826	482.43
873.134	444.13
873.441	382.85
873.749	408.38
874.056	418.59
874.363	418.59
874.671	444.13
874.978	393.06
875.285	380.29
875.592	400.72
875.9	344.55
876.207	393.06
876.514	418.59
876.821	403.27
877.128	387.95
877.435	405.83
877.741	459.45
878.048	431.36
878.355	423.7
878.662	441.57
878.968	364.97
879.275	380.29
879.582	341.99
879.888	454.34
880.195	484.98
880.501	385.4
880.807	357.31
881.114	398.17
881.42	398.17
881.726	387.95
882.032	477.32
882.339	431.36
882.645	385.4
882.951	451.79
883.257	416.04
883.563	405.83
883.869	439.02
884.174	421.15
884.48	418.59
884.786	375.19
885.092	436.47
885.397	364.97
885.703	439.02
886.009	410.93
886.314	410.93
886.62	416.04
886.925	431.36
887.231	385.4
887.536	357.31
887.841	418.59
888.146	421.15
888.452	433.91
888.757	472.22
889.062	426.25
889.367	380.29
889.672	398.17
889.977	367.53
890.282	433.91
890.587	416.04
890.892	428.81
891.196	390.51
891.501	410.93
891.806	408.38
892.11	431.36
892.415	431.36
892.72	296.03
893.024	408.38
893.328	441.57
893.633	423.7
893.937	398.17
894.242	421.15
894.546	364.97
894.85	428.81
895.154	377.74
895.458	405.83
895.762	398.17
896.066	421.15
896.37	416.04
896.674	400.72
896.978	431.36
897.282	431.36
897.586	382.85
897.89	400.72
898.193	336.89
898.497	423.7
898.801	403.27
899.104	423.7
899.408	413.49
899.711	364.97
900.014	393.06
900.318	408.38
900.621	403.27
900.924	423.7
901.228	395.61
901.531	454.34
901.834	416.04
902.137	393.06
902.44	423.7
902.743	436.47
903.046	454.34
903.349	395.61
903.652	454.34
903.955	418.59
904.257	492.64
904.56	444.13
904.863	456.9
905.165	423.7
905.468	380.29
905.77	459.45
906.073	444.13
906.375	416.04
906.678	484.98
906.98	449.23
907.282	487.54
907.584	372.63
907.887	390.51
908.189	321.57
908.491	395.61
908.793	477.32
909.095	464.56
909.397	433.91
909.699	444.13
910.001	416.04
910.302	446.68
910.604	408.38
910.906	408.38
911.208	464.56
911.509	441.57
911.811	451.79
912.112	451.79
912.414	410.93
912.715	393.06
913.017	357.31
913.318	367.53
913.619	387.95
913.92	433.91
914.222	433.91
914.523	446.68
914.824	395.61
915.125	405.83
915.426	428.81
915.727	403.27
916.028	416.04
916.329	354.76
916.63	344.55
916.93	456.9
917.231	357.31
917.532	349.65
917.832	344.55
918.133	395.61
918.434	375.19
918.734	370.08
919.034	464.56
919.335	339.44
919.635	416.04
919.935	416.04
920.236	408.38
920.536	428.81
920.836	459.45
921.136	421.15
921.436	538.6
921.736	416.04
922.036	441.57
922.336	426.25
922.636	382.85
922.936	462
923.236	436.47
923.535	413.49
923.835	410.93
924.135	439.02
924.434	433.91
924.734	410.93
925.033	428.81
925.333	408.38
925.632	416.04
925.932	367.53
926.231	428.81
926.53	467.11
926.83	416.04
927.129	370.08
927.428	319.01
927.727	375.19
928.026	390.51
928.325	400.72
928.624	433.91
928.923	444.13
929.222	436.47
929.52	474.77
929.819	413.49
930.118	433.91
930.417	423.7
930.715	410.93
931.014	413.49
931.312	525.84
931.611	382.85
931.909	357.31
932.207	449.23
932.506	352.21
932.804	382.85
933.102	433.91
933.401	462
933.699	395.61
933.997	418.59
934.295	372.63
934.593	444.13
934.891	331.78
935.189	334.33
935.487	380.29
935.784	428.81
936.082	413.49
936.38	444.13
936.677	426.25
936.975	464.56
937.273	441.57
937.57	413.49
937.868	382.85
938.165	370.08
938.463	428.81
938.76	367.53
939.057	423.7
939.354	439.02
939.652	418.59
939.949	359.87
940.246	456.9
940.543	439.02
940.84	390.51
941.137	385.4
941.434	367.53
941.731	395.61
942.028	370.08
942.324	367.53
942.621	446.68
942.918	390.51
943.214	421.15
943.511	413.49
943.807	380.29
944.104	395.61
944.4	393.06
944.697	433.91
944.993	387.95
945.29	387.95
945.586	400.72
945.882	403.27
946.178	413.49
946.474	451.79
946.77	482.43
947.066	372.63
947.362	423.7
947.658	464.56
947.954	444.13
948.25	367.53
948.546	347.1
948.842	444.13
949.137	382.85
949.433	433.91
949.729	405.83
950.024	395.61
950.32	423.7
950.615	387.95
950.91	382.85
951.206	451.79
951.501	410.93
951.796	377.74
952.092	410.93
952.387	398.17
952.682	469.66
952.977	403.27
953.272	492.64
953.567	331.78
953.862	400.72
954.157	431.36
954.452	444.13
954.747	490.09
955.041	367.53
955.336	433.91
955.631	367.53
955.925	449.23
956.22	446.68
956.514	426.25
956.809	393.06
957.103	370.08
957.398	405.83
957.692	451.79
957.986	405.83
958.281	398.17
958.575	372.63
958.869	395.61
959.163	403.27
959.457	451.79
959.751	395.61
960.045	377.74
960.339	462
960.633	413.49
960.927	474.77
961.221	446.68
961.514	416.04
961.808	372.63
962.102	382.85
962.395	393.06
962.689	436.47
962.982	349.65
963.276	439.02
963.569	439.02
963.862	444.13
964.156	482.43
964.449	459.45
964.742	421.15
965.035	451.79
965.328	423.7
965.622	398.17
965.915	380.29
966.208	423.7
966.5	377.74
966.793	321.57
967.086	446.68
967.379	490.09
967.672	428.81
967.964	477.32
968.257	403.27
968.55	436.47
968.842	354.76
969.135	354.76
969.427	462
969.72	377.74
970.012	370.08
970.304	451.79
970.597	416.04
970.889	362.42
971.181	431.36
971.473	413.49
971.765	428.81
972.057	446.68
972.349	413.49
972.641	382.85
972.933	403.27
973.225	380.29
973.517	395.61
973.809	423.7
974.1	408.38
974.392	403.27
974.684	336.89
974.975	390.51
975.267	403.27
975.558	456.9
975.85	439.02
976.141	421.15
976.432	408.38
976.724	403.27
977.015	421.15
977.306	410.93
977.597	444.13
977.888	395.61
978.179	387.95
978.47	418.59
978.761	464.56
979.052	377.74
979.343	385.4
979.634	370.08
979.925	385.4
980.215	382.85
980.506	354.76
980.797	405.83
981.087	377.74
981.378	385.4
981.668	495.2
981.959	400.72
982.249	436.47
982.54	421.15
982.83	400.72
983.12	398.17
983.41	403.27
983.701	405.83
983.991	372.63
984.281	439.02
984.571	385.4
984.861	408.38
985.151	395.61
985.441	403.27
985.73	359.87
986.02	400.72
986.31	349.65
986.6	416.04
986.889	367.53
987.179	413.49
987.469	439.02
987.758	444.13
988.048	354.76
988.337	405.83
988.626	444.13
988.916	421.15
989.205	464.56
989.494	410.93
989.783	349.65
990.073	418.59
990.362	408.38
990.651	428.81
990.94	382.85
991.229	408.38
991.518	462
991.806	395.61
992.095	375.19
992.384	387.95
992.673	390.51
992.961	418.59
993.25	375.19
993.539	329.23
993.827	400.72
994.116	479.88
994.404	467.11
994.692	380.29
994.981	372.63
995.269	367.53
995.557	436.47
995.846	329.23
996.134	403.27
996.422	387.95
996.71	426.25
996.998	426.25
997.286	347.1
997.574	372.63
997.862	344.55
998.15	385.4
998.437	410.93
998.725	446.68
999.013	377.74
999.3	329.23
999.588	370.08
999.876	413.49
1000.163	385.4
1000.45	523.28
1000.738	510.52
1001.025	413.49
1001.313	336.89
1001.6	441.57
1001.887	326.67
1002.174	370.08
1002.461	439.02
1002.748	380.29
1003.036	408.38
1003.322	405.83
1003.609	331.78
1003.896	375.19
1004.183	423.7
1004.47	410.93
1004.757	400.72
1005.043	444.13
1005.33	462
1005.617	423.7
1005.903	398.17
1006.19	418.59
1006.476	357.31
1006.763	382.85
1007.049	347.1
1007.335	405.83
1007.622	426.25
1007.908	416.04
1008.194	449.23
1008.48	405.83
1008.766	405.83
1009.053	375.19
1009.339	395.61
1009.625	421.15
1009.91	329.23
1010.196	410.93
1010.482	385.4
1010.768	462
1011.054	428.81
1011.339	413.49
1011.625	362.42
1011.911	441.57
1012.196	398.17
1012.482	467.11
1012.767	357.31
1013.052	377.74
1013.338	464.56
1013.623	400.72
1013.908	375.19
1014.194	400.72
1014.479	390.51
1014.764	352.21
1015.049	321.57
1015.334	441.57
1015.619	454.34
1015.904	428.81
1016.189	428.81
1016.474	347.1
1016.758	418.59
1017.043	413.49
1017.328	456.9
1017.613	405.83
1017.897	380.29
1018.182	364.97
1018.466	367.53
1018.751	436.47
1019.035	395.61
1019.32	444.13
1019.604	395.61
1019.888	344.55
1020.172	344.55
1020.457	344.55
