Data from 2025-12-03_xpw_interference_micrometer_634_dark_FLMS141361__28__178.txt Node

Date: Wed Dec 03 15:50:02 MST 2025
User: james
Spectrometer: FLMS14136
Trigger mode: 0
Integration Time (sec): 1.000000E-1
Scans to average: 1
Electric dark correction enabled: true
Nonlinearity correction enabled: false
Boxcar width: 0
XAxis mode: Wavelengths
Number of Pixels in Spectrum: 2048
>>>>>Begin Spectral Data<<<<<
339.315	-45.8
339.697	-45.8
340.079	-45.8
340.461	-124.96
340.843	-99.42
341.225	-48.35
341.607	-40.69
341.989	-25.37
342.371	-165.81
342.752	-117.3
343.134	-50.91
343.516	-45.8
343.897	-7.5
344.279	23.14
344.661	7.82
345.042	112.51
345.423	74.21
345.805	10.37
346.186	92.08
346.567	69.1
346.949	112.51
347.33	117.61
347.711	112.51
348.092	173.79
348.473	268.26
348.854	138.04
349.235	222.3
349.616	301.46
349.997	316.78
350.378	398.49
350.758	329.55
351.139	339.76
351.52	319.33
351.9	383.17
352.281	429.13
352.661	372.95
353.042	434.23
353.422	424.02
353.803	375.51
354.183	367.85
354.563	416.36
354.943	401.04
355.324	447
355.704	401.04
356.084	398.49
356.464	375.51
356.844	439.34
357.224	411.25
357.603	388.27
357.983	357.63
358.363	401.04
358.743	388.27
359.122	388.27
359.502	321.89
359.882	403.59
360.261	398.49
360.641	393.38
361.02	388.27
361.399	395.93
361.779	380.61
362.158	403.59
362.537	390.83
362.916	352.53
363.296	431.68
363.675	337.21
364.054	339.76
364.433	342.31
364.812	293.8
365.19	311.67
365.569	383.17
365.948	367.85
366.327	365.29
366.705	436.79
367.084	365.29
367.463	385.72
367.841	408.7
368.22	411.25
368.598	416.36
368.977	365.29
369.355	329.55
369.733	367.85
370.111	357.63
370.49	339.76
370.868	360.19
371.246	347.42
371.624	316.78
372.002	372.95
372.38	429.13
372.758	316.78
373.136	306.56
373.513	347.42
373.891	365.29
374.269	429.13
374.646	434.23
375.024	383.17
375.402	347.42
375.779	436.79
376.157	357.63
376.534	380.61
376.911	426.57
377.289	357.63
377.666	324.44
378.043	378.06
378.42	418.91
378.797	375.51
379.175	424.02
379.552	385.72
379.929	383.17
380.305	408.7
380.682	355.08
381.059	395.93
381.436	380.61
381.813	365.29
382.189	347.42
382.566	395.93
382.943	339.76
383.319	383.17
383.696	355.08
384.072	383.17
384.448	360.19
384.825	403.59
385.201	365.29
385.577	355.08
385.953	349.97
386.329	347.42
386.706	375.51
387.082	406.15
387.458	411.25
387.834	337.21
388.209	403.59
388.585	380.61
388.961	365.29
389.337	424.02
389.713	403.59
390.088	375.51
390.464	316.78
390.839	390.83
391.215	360.19
391.59	390.83
391.966	375.51
392.341	398.49
392.716	388.27
393.092	413.81
393.467	362.74
393.842	370.4
394.217	337.21
394.592	378.06
394.967	334.65
395.342	370.4
395.717	383.17
396.092	378.06
396.467	434.23
396.841	385.72
397.216	378.06
397.591	375.51
397.965	429.13
398.34	395.93
398.714	441.89
399.089	388.27
399.463	431.68
399.838	372.95
400.212	421.47
400.586	372.95
400.961	413.81
401.335	444.45
401.709	390.83
402.083	383.17
402.457	431.68
402.831	411.25
403.205	411.25
403.579	444.45
403.953	380.61
404.326	480.19
404.7	439.34
405.074	413.81
405.447	385.72
405.821	372.95
406.195	378.06
406.568	388.27
406.942	411.25
407.315	355.08
407.688	401.04
408.062	439.34
408.435	383.17
408.808	367.85
409.181	436.79
409.554	347.42
409.927	439.34
410.3	375.51
410.673	439.34
411.046	385.72
411.419	418.91
411.792	388.27
412.165	436.79
412.537	372.95
412.91	370.4
413.283	388.27
413.655	429.13
414.028	329.55
414.4	431.68
414.773	449.55
415.145	378.06
415.517	367.85
415.889	403.59
416.262	383.17
416.634	393.38
417.006	413.81
417.378	418.91
417.75	431.68
418.122	344.87
418.494	375.51
418.866	344.87
419.238	337.21
419.609	316.78
419.981	395.93
420.353	406.15
420.725	421.47
421.096	393.38
421.468	357.63
421.839	503.18
422.211	416.36
422.582	495.51
422.953	426.57
423.325	372.95
423.696	403.59
424.067	452.11
424.438	441.89
424.809	360.19
425.18	406.15
425.551	411.25
425.922	408.7
426.293	362.74
426.664	439.34
427.035	462.32
427.406	388.27
427.776	459.77
428.147	416.36
428.518	418.91
428.888	383.17
429.259	362.74
429.629	459.77
429.999	324.44
430.37	362.74
430.74	401.04
431.11	462.32
431.481	393.38
431.851	457.21
432.221	349.97
432.591	357.63
432.961	398.49
433.331	441.89
433.701	385.72
434.071	475.09
434.441	444.45
434.81	424.02
435.18	434.23
435.55	411.25
435.919	355.08
436.289	421.47
436.658	334.65
437.028	421.47
437.397	383.17
437.767	365.29
438.136	413.81
438.505	447
438.875	424.02
439.244	411.25
439.613	447
439.982	462.32
440.351	447
440.72	431.68
441.089	398.49
441.458	457.21
441.827	408.7
442.196	462.32
442.564	490.41
442.933	485.3
443.302	406.15
443.67	378.06
444.039	434.23
444.407	429.13
444.776	360.19
445.144	441.89
445.513	408.7
445.881	395.93
446.249	469.98
446.617	413.81
446.986	444.45
447.354	490.41
447.722	498.07
448.09	418.91
448.458	411.25
448.826	503.18
449.194	444.45
449.561	314.23
449.929	434.23
450.297	475.09
450.665	398.49
451.032	452.11
451.4	421.47
451.767	457.21
452.135	518.5
452.502	439.34
452.87	413.81
453.237	469.98
453.604	457.21
453.971	411.25
454.339	454.66
454.706	441.89
455.073	393.38
455.44	416.36
455.807	352.53
456.174	462.32
456.541	413.81
456.908	472.53
457.274	462.32
457.641	472.53
458.008	480.19
458.374	416.36
458.741	469.98
459.108	418.91
459.474	480.19
459.841	398.49
460.207	401.04
460.573	383.17
460.94	393.38
461.306	418.91
461.672	408.7
462.038	439.34
462.404	421.47
462.771	431.68
463.137	357.63
463.503	393.38
463.868	398.49
464.234	357.63
464.6	403.59
464.966	449.55
465.332	436.79
465.697	418.91
466.063	454.66
466.429	421.47
466.794	424.02
467.16	436.79
467.525	429.13
467.89	416.36
468.256	454.66
468.621	421.47
468.986	441.89
469.351	434.23
469.717	390.83
470.082	401.04
470.447	424.02
470.812	413.81
471.177	467.43
471.542	429.13
471.906	475.09
472.271	457.21
472.636	385.72
473.001	395.93
473.365	408.7
473.73	380.61
474.094	401.04
474.459	411.25
474.823	360.19
475.188	393.38
475.552	444.45
475.917	403.59
476.281	424.02
476.645	403.59
477.009	390.83
477.373	406.15
477.737	426.57
478.101	406.15
478.465	375.51
478.829	378.06
479.193	441.89
479.557	370.4
479.921	395.93
480.284	395.93
480.648	418.91
481.012	413.81
481.375	398.49
481.739	411.25
482.102	452.11
482.466	464.87
482.829	467.43
483.193	347.42
483.556	429.13
483.919	429.13
484.282	406.15
484.645	487.85
485.009	418.91
485.372	393.38
485.735	424.02
486.098	472.53
486.46	375.51
486.823	459.77
487.186	431.68
487.549	370.4
487.912	439.34
488.274	513.39
488.637	424.02
488.999	424.02
489.362	408.7
489.724	434.23
490.087	378.06
490.449	421.47
490.811	441.89
491.174	383.17
491.536	441.89
491.898	439.34
492.26	398.49
492.622	439.34
492.984	426.57
493.346	413.81
493.708	424.02
494.07	424.02
494.432	434.23
494.794	360.19
495.155	426.57
495.517	390.83
495.879	355.08
496.24	375.51
496.602	398.49
496.963	452.11
497.325	444.45
497.686	467.43
498.048	482.75
498.409	383.17
498.77	378.06
499.131	482.75
499.492	375.51
499.854	372.95
500.215	421.47
500.576	424.02
500.937	418.91
501.298	431.68
501.658	492.96
502.019	434.23
502.38	406.15
502.741	439.34
503.101	444.45
503.462	429.13
503.823	431.68
504.183	406.15
504.543	403.59
504.904	441.89
505.264	403.59
505.625	357.63
505.985	477.64
506.345	426.57
506.705	408.7
507.065	416.36
507.426	444.45
507.786	380.61
508.146	355.08
508.505	475.09
508.865	401.04
509.225	385.72
509.585	480.19
509.945	401.04
510.304	452.11
510.664	464.87
511.024	447
511.383	429.13
511.743	434.23
512.102	413.81
512.462	370.4
512.821	385.72
513.18	362.74
513.539	431.68
513.899	441.89
514.258	393.38
514.617	375.51
514.976	447
515.335	413.81
515.694	444.45
516.053	436.79
516.412	436.79
516.771	375.51
517.129	447
517.488	462.32
517.847	436.79
518.205	462.32
518.564	431.68
518.922	421.47
519.281	413.81
519.639	436.79
519.998	434.23
520.356	464.87
520.714	434.23
521.073	447
521.431	447
521.789	452.11
522.147	344.87
522.505	452.11
522.863	421.47
523.221	395.93
523.579	444.45
523.937	447
524.295	393.38
524.652	383.17
525.01	365.29
525.368	401.04
525.725	457.21
526.083	472.53
526.44	385.72
526.798	411.25
527.155	459.77
527.513	411.25
527.87	408.7
528.227	406.15
528.584	454.66
528.942	454.66
529.299	495.51
529.656	378.06
530.013	426.57
530.37	380.61
530.727	416.36
531.083	385.72
531.44	367.85
531.797	370.4
532.154	362.74
532.511	416.36
532.867	487.85
533.224	388.27
533.58	434.23
533.937	411.25
534.293	411.25
534.65	431.68
535.006	536.37
535.362	390.83
535.718	413.81
536.075	480.19
536.431	388.27
536.787	431.68
537.143	413.81
537.499	441.89
537.855	403.59
538.211	439.34
538.567	449.55
538.923	395.93
539.278	434.23
539.634	492.96
539.99	475.09
540.345	439.34
540.701	390.83
541.056	380.61
541.412	403.59
541.767	452.11
542.123	444.45
542.478	469.98
542.833	398.49
543.188	406.15
543.544	408.7
543.899	390.83
544.254	413.81
544.609	429.13
544.964	380.61
545.319	413.81
545.674	459.77
546.029	360.19
546.383	464.87
546.738	393.38
547.093	339.76
547.447	434.23
547.802	403.59
548.157	411.25
548.511	395.93
548.866	429.13
549.22	401.04
549.574	447
549.929	408.7
550.283	349.97
550.637	444.45
550.991	434.23
551.345	436.79
551.699	424.02
552.053	475.09
552.407	447
552.761	467.43
553.115	447
553.469	447
553.823	406.15
554.176	477.64
554.53	401.04
554.884	416.36
555.237	753.41
555.591	477.64
555.944	436.79
556.298	383.17
556.651	431.68
557.005	436.79
557.358	395.93
557.711	395.93
558.064	395.93
558.417	372.95
558.771	472.53
559.124	492.96
559.477	426.57
559.83	447
560.182	447
560.535	546.58
560.888	454.66
561.241	395.93
561.594	416.36
561.946	436.79
562.299	441.89
562.651	487.85
563.004	477.64
563.356	492.96
563.709	447
564.061	372.95
564.413	462.32
564.766	447
565.118	434.23
565.47	401.04
565.822	436.79
566.174	403.59
566.526	411.25
566.878	421.47
567.23	403.59
567.582	431.68
567.934	462.32
568.286	454.66
568.638	485.3
568.989	406.15
569.341	393.38
569.693	413.81
570.044	421.47
570.396	457.21
570.747	467.43
571.098	416.36
571.45	477.64
571.801	434.23
572.152	457.21
572.504	344.87
572.855	426.57
573.206	477.64
573.557	447
573.908	385.72
574.259	385.72
574.61	380.61
574.961	385.72
575.311	457.21
575.662	467.43
576.013	426.57
576.364	388.27
576.714	452.11
577.065	467.43
577.415	355.08
577.766	421.47
578.116	464.87
578.467	424.02
578.817	441.89
579.167	447
579.518	434.23
579.868	487.85
580.218	447
580.568	464.87
580.918	426.57
581.268	467.43
581.618	436.79
581.968	375.51
582.318	390.83
582.668	447
583.017	375.51
583.367	452.11
583.717	487.85
584.066	449.55
584.416	472.53
584.765	406.15
585.115	429.13
585.464	426.57
585.814	424.02
586.163	393.38
586.512	447
586.862	383.17
587.211	355.08
587.56	390.83
587.909	447
588.258	518.5
588.607	477.64
588.956	447
589.305	485.3
589.654	426.57
590.002	421.47
590.351	385.72
590.7	406.15
591.048	406.15
591.397	426.57
591.746	459.77
592.094	395.93
592.443	477.64
592.791	477.64
593.139	441.89
593.488	454.66
593.836	431.68
594.184	406.15
594.532	375.51
594.88	403.59
595.228	370.4
595.576	434.23
595.924	447
596.272	390.83
596.62	365.29
596.968	434.23
597.316	416.36
597.664	360.19
598.011	403.59
598.359	498.07
598.706	441.89
599.054	406.15
599.402	408.7
599.749	426.57
600.096	436.79
600.444	449.55
600.791	411.25
601.138	321.89
601.485	380.61
601.833	441.89
602.18	403.59
602.527	408.7
602.874	462.32
603.221	424.02
603.568	393.38
603.914	416.36
604.261	444.45
604.608	444.45
604.955	533.82
605.301	452.11
605.648	395.93
605.995	355.08
606.341	395.93
606.688	362.74
607.034	459.77
607.38	390.83
607.727	436.79
608.073	416.36
608.419	390.83
608.765	444.45
609.112	383.17
609.458	355.08
609.804	457.21
610.15	485.3
610.496	406.15
610.842	457.21
611.187	421.47
611.533	390.83
611.879	375.51
612.225	436.79
612.57	370.4
612.916	398.49
613.261	362.74
613.607	380.61
613.952	441.89
614.298	424.02
614.643	439.34
614.989	452.11
615.334	393.38
615.679	429.13
616.024	457.21
616.369	485.3
616.714	413.81
617.059	472.53
617.404	393.38
617.749	467.43
618.094	447
618.439	467.43
618.784	408.7
619.129	380.61
619.473	416.36
619.818	452.11
620.163	406.15
620.507	398.49
620.852	362.74
621.196	447
621.54	383.17
621.885	344.87
622.229	413.81
622.573	395.93
622.918	426.57
623.262	436.79
623.606	411.25
623.95	385.72
624.294	380.61
624.638	431.68
624.982	375.51
625.326	393.38
625.67	411.25
626.013	413.81
626.357	408.7
626.701	390.83
627.044	385.72
627.388	444.45
627.731	441.89
628.075	459.77
628.418	429.13
628.762	487.85
629.105	370.4
629.448	413.81
629.792	454.66
630.135	464.87
630.478	385.72
630.821	444.45
631.164	390.83
631.507	375.51
631.85	360.19
632.193	487.85
632.536	467.43
632.879	378.06
633.221	395.93
633.564	372.95
633.907	401.04
634.249	436.79
634.592	383.17
634.935	390.83
635.277	447
635.619	408.7
635.962	390.83
636.304	401.04
636.646	454.66
636.989	401.04
637.331	434.23
637.673	449.55
638.015	403.59
638.357	436.79
638.699	388.27
639.041	426.57
639.383	439.34
639.725	339.76
640.067	447
640.408	444.45
640.75	355.08
641.092	352.53
641.433	444.45
641.775	395.93
642.116	395.93
642.458	447
642.799	406.15
643.141	349.97
643.482	365.29
643.823	421.47
644.164	421.47
644.506	518.5
644.847	408.7
645.188	380.61
645.529	347.42
645.87	464.87
646.211	395.93
646.552	393.38
646.893	439.34
647.233	424.02
647.574	457.21
647.915	452.11
648.255	431.68
648.596	444.45
648.937	436.79
649.277	395.93
649.618	485.3
649.958	505.73
650.298	436.79
650.639	360.19
650.979	416.36
651.319	421.47
651.659	447
651.999	447
652.339	464.87
652.679	457.21
653.019	439.34
653.359	411.25
653.699	452.11
654.039	441.89
654.379	309.12
654.719	352.53
655.058	372.95
655.398	393.38
655.737	469.98
656.077	424.02
656.416	380.61
656.756	411.25
657.095	447
657.435	454.66
657.774	344.87
658.113	408.7
658.452	372.95
658.792	482.75
659.131	411.25
659.47	344.87
659.809	378.06
660.148	406.15
660.487	357.63
660.826	429.13
661.164	411.25
661.503	454.66
661.842	436.79
662.181	347.42
662.519	408.7
662.858	378.06
663.196	401.04
663.535	416.36
663.873	418.91
664.212	444.45
664.55	352.53
664.888	367.85
665.226	390.83
665.565	418.91
665.903	620.63
666.241	441.89
666.579	413.81
666.917	464.87
667.255	424.02
667.593	411.25
667.931	398.49
668.268	436.79
668.606	421.47
668.944	370.4
669.282	357.63
669.619	424.02
669.957	411.25
670.294	418.91
670.632	413.81
670.969	469.98
671.307	447
671.644	480.19
671.981	444.45
672.318	487.85
672.656	449.55
672.993	421.47
673.33	388.27
673.667	477.64
674.004	411.25
674.341	393.38
674.678	408.7
675.015	500.62
675.351	472.53
675.688	454.66
676.025	416.36
676.362	403.59
676.698	439.34
677.035	408.7
677.371	498.07
677.708	426.57
678.044	498.07
678.38	413.81
678.717	408.7
679.053	431.68
679.389	462.32
679.725	447
680.062	498.07
680.398	449.55
680.734	398.49
681.07	378.06
681.406	436.79
681.742	421.47
682.077	418.91
682.413	454.66
682.749	449.55
683.085	441.89
683.42	378.06
683.756	449.55
684.091	421.47
684.427	429.13
684.762	393.38
685.098	388.27
685.433	429.13
685.768	403.59
686.104	398.49
686.439	421.47
686.774	398.49
687.109	347.42
687.444	401.04
687.779	454.66
688.114	398.49
688.449	459.77
688.784	408.7
689.119	403.59
689.454	447
689.789	464.87
690.123	362.74
690.458	352.53
690.792	441.89
691.127	375.51
691.461	426.57
691.796	395.93
692.13	380.61
692.465	372.95
692.799	406.15
693.133	334.65
693.467	467.43
693.802	485.3
694.136	452.11
694.47	498.07
694.804	416.36
695.138	360.19
695.472	436.79
695.806	393.38
696.139	380.61
696.473	390.83
696.807	408.7
697.141	411.25
697.474	375.51
697.808	393.38
698.141	408.7
698.475	424.02
698.808	424.02
699.142	411.25
699.475	370.4
699.808	454.66
700.142	355.08
700.475	431.68
700.808	434.23
701.141	434.23
701.474	360.19
701.807	385.72
702.14	434.23
702.473	447
702.806	355.08
703.139	403.59
703.472	436.79
703.804	390.83
704.137	380.61
704.47	426.57
704.802	370.4
705.135	452.11
705.467	383.17
705.8	362.74
706.132	395.93
706.464	475.09
706.797	388.27
707.129	426.57
707.461	431.68
707.793	436.79
708.125	406.15
708.457	372.95
708.789	395.93
709.121	424.02
709.453	395.93
709.785	411.25
710.117	406.15
710.449	426.57
710.781	395.93
711.112	441.89
711.444	418.91
711.775	426.57
712.107	477.64
712.438	447
712.77	403.59
713.101	439.34
713.433	390.83
713.764	416.36
714.095	411.25
714.426	416.36
714.757	398.49
715.089	347.42
715.42	406.15
715.751	388.27
716.082	385.72
716.412	454.66
716.743	413.81
717.074	421.47
717.405	393.38
717.736	324.44
718.066	380.61
718.397	421.47
718.727	378.06
719.058	334.65
719.388	349.97
719.719	439.34
720.049	383.17
720.38	429.13
720.71	390.83
721.04	434.23
721.37	475.09
721.7	421.47
722.031	398.49
722.361	464.87
722.691	406.15
723.021	436.79
723.35	378.06
723.68	362.74
724.01	411.25
724.34	370.4
724.67	375.51
724.999	372.95
725.329	416.36
725.658	429.13
725.988	378.06
726.317	452.11
726.647	498.07
726.976	426.57
727.306	464.87
727.635	403.59
727.964	352.53
728.293	498.07
728.622	441.89
728.952	436.79
729.281	452.11
729.61	447
729.939	329.55
730.267	388.27
730.596	401.04
730.925	383.17
731.254	421.47
731.583	362.74
731.911	413.81
732.24	449.55
732.568	431.68
732.897	398.49
733.225	401.04
733.554	401.04
733.882	388.27
734.21	439.34
734.539	337.21
734.867	372.95
735.195	362.74
735.523	485.3
735.851	429.13
736.179	464.87
736.507	380.61
736.835	380.61
737.163	431.68
737.491	444.45
737.819	452.11
738.147	408.7
738.474	424.02
738.802	459.77
739.13	355.08
739.457	372.95
739.785	398.49
740.112	462.32
740.44	393.38
740.767	498.07
741.094	416.36
741.422	413.81
741.749	434.23
742.076	390.83
742.403	401.04
742.73	441.89
743.057	411.25
743.384	416.36
743.711	378.06
744.038	393.38
744.365	418.91
744.692	449.55
745.018	395.93
745.345	424.02
745.672	467.43
745.998	403.59
746.325	388.27
746.651	355.08
746.978	426.57
747.304	401.04
747.631	457.21
747.957	388.27
748.283	380.61
748.61	436.79
748.936	413.81
749.262	309.12
749.588	357.63
749.914	378.06
750.24	406.15
750.566	431.68
750.892	372.95
751.218	429.13
751.543	439.34
751.869	385.72
752.195	352.53
752.521	380.61
752.846	418.91
753.172	403.59
753.497	441.89
753.823	436.79
754.148	372.95
754.473	413.81
754.799	406.15
755.124	459.77
755.449	395.93
755.774	426.57
756.1	431.68
756.425	416.36
756.75	439.34
757.075	441.89
757.4	533.82
757.724	454.66
758.049	401.04
758.374	449.55
758.699	424.02
759.024	393.38
759.348	401.04
759.673	424.02
759.997	388.27
760.322	395.93
760.646	406.15
760.971	398.49
761.295	487.85
761.619	449.55
761.944	395.93
762.268	411.25
762.592	434.23
762.916	457.21
763.24	372.95
763.564	426.57
763.888	388.27
764.212	436.79
764.536	380.61
764.86	401.04
765.184	406.15
765.508	475.09
765.831	426.57
766.155	684.46
766.478	454.66
766.802	385.72
767.126	339.76
767.449	370.4
767.772	424.02
768.096	385.72
768.419	395.93
768.742	367.85
769.066	408.7
769.389	401.04
769.712	380.61
770.035	426.57
770.358	439.34
770.681	383.17
771.004	408.7
771.327	434.23
771.65	411.25
771.972	413.81
772.295	365.29
772.618	469.98
772.941	421.47
773.263	388.27
773.586	416.36
773.908	457.21
774.231	464.87
774.553	480.19
774.875	393.38
775.198	431.68
775.52	431.68
775.842	390.83
776.164	418.91
776.487	349.97
776.809	352.53
777.131	388.27
777.453	413.81
777.775	418.91
778.096	408.7
778.418	431.68
778.74	367.85
779.062	421.47
779.384	424.02
779.705	393.38
780.027	439.34
780.348	429.13
780.67	306.56
780.991	319.33
781.313	390.83
781.634	439.34
781.955	413.81
782.277	367.85
782.598	403.59
782.919	408.7
783.24	393.38
783.561	395.93
783.882	449.55
784.203	447
784.524	449.55
784.845	452.11
785.166	375.51
785.487	439.34
785.807	436.79
786.128	372.95
786.449	439.34
786.769	431.68
787.09	342.31
787.41	370.4
787.731	349.97
788.051	424.02
788.372	403.59
788.692	447
789.012	408.7
789.332	475.09
789.653	411.25
789.973	411.25
790.293	370.4
790.613	434.23
790.933	447
791.253	362.74
791.573	408.7
791.893	403.59
792.212	487.85
792.532	406.15
792.852	370.4
793.171	413.81
793.491	436.79
793.811	349.97
794.13	436.79
794.45	413.81
794.769	406.15
795.088	426.57
795.408	398.49
795.727	452.11
796.046	421.47
796.365	416.36
796.684	411.25
797.004	393.38
797.323	388.27
797.642	378.06
797.96	370.4
798.279	347.42
798.598	401.04
798.917	403.59
799.236	444.45
799.554	459.77
799.873	367.85
800.192	362.74
800.51	416.36
800.829	406.15
801.147	383.17
801.466	403.59
801.784	431.68
802.102	518.5
802.421	431.68
802.739	472.53
803.057	441.89
803.375	459.77
803.693	447
804.011	510.84
804.329	459.77
804.647	393.38
804.965	347.42
805.283	467.43
805.601	444.45
805.918	408.7
806.236	390.83
806.554	352.53
806.871	492.96
807.189	375.51
807.507	398.49
807.824	408.7
808.141	436.79
808.459	444.45
808.776	329.55
809.093	444.45
809.411	429.13
809.728	457.21
810.045	431.68
810.362	372.95
810.679	431.68
810.996	434.23
811.313	385.72
811.63	413.81
811.947	385.72
812.264	459.77
812.58	395.93
812.897	375.51
813.214	462.32
813.53	406.15
813.847	413.81
814.163	431.68
814.48	390.83
814.796	372.95
815.113	406.15
815.429	380.61
815.745	383.17
816.061	393.38
816.378	390.83
816.694	401.04
817.01	439.34
817.326	390.83
817.642	390.83
817.958	367.85
818.274	444.45
818.59	459.77
818.905	475.09
819.221	408.7
819.537	403.59
819.852	416.36
820.168	372.95
820.484	395.93
820.799	424.02
821.115	436.79
821.43	370.4
821.745	355.08
822.061	411.25
822.376	406.15
822.691	395.93
823.006	342.31
823.322	385.72
823.637	429.13
823.952	452.11
824.267	416.36
824.582	365.29
824.897	334.65
825.211	429.13
825.526	464.87
825.841	492.96
826.156	401.04
826.47	441.89
826.785	454.66
827.1	421.47
827.414	454.66
827.729	403.59
828.043	372.95
828.357	370.4
828.672	372.95
828.986	421.47
829.3	421.47
829.614	406.15
829.929	398.49
830.243	395.93
830.557	439.34
830.871	388.27
831.185	385.72
831.499	408.7
831.812	329.55
832.126	418.91
832.44	444.45
832.754	380.61
833.067	403.59
833.381	367.85
833.695	439.34
834.008	324.44
834.322	429.13
834.635	365.29
834.948	459.77
835.262	449.55
835.575	447
835.888	398.49
836.201	426.57
836.515	413.81
836.828	444.45
837.141	390.83
837.454	398.49
837.767	334.65
838.08	406.15
838.392	395.93
838.705	485.3
839.018	367.85
839.331	390.83
839.643	426.57
839.956	431.68
840.269	411.25
840.581	403.59
840.894	372.95
841.206	375.51
841.519	561.9
841.831	429.13
842.143	334.65
842.455	406.15
842.768	395.93
843.08	378.06
843.392	454.66
843.704	441.89
844.016	390.83
844.328	390.83
844.64	424.02
844.952	380.61
845.263	429.13
845.575	413.81
845.887	357.63
846.199	380.61
846.51	393.38
846.822	424.02
847.133	365.29
847.445	464.87
847.756	439.34
848.068	339.76
848.379	441.89
848.69	492.96
849.002	426.57
849.313	398.49
849.624	429.13
849.935	418.91
850.246	372.95
850.557	452.11
850.868	413.81
851.179	398.49
851.49	388.27
851.801	447
852.112	403.59
852.422	406.15
852.733	475.09
853.044	372.95
853.354	498.07
853.665	339.76
853.975	380.61
854.286	406.15
854.596	452.11
854.906	390.83
855.217	408.7
855.527	424.02
855.837	390.83
856.147	424.02
856.458	362.74
856.768	429.13
857.078	411.25
857.388	403.59
857.698	411.25
858.007	401.04
858.317	383.17
858.627	413.81
858.937	431.68
859.246	378.06
859.556	332.1
859.866	385.72
860.175	385.72
860.485	388.27
860.794	398.49
861.104	385.72
861.413	426.57
861.722	385.72
862.032	439.34
862.341	449.55
862.65	365.29
862.959	492.96
863.268	273.37
863.577	393.38
863.886	388.27
864.195	406.15
864.504	362.74
864.813	365.29
865.122	334.65
865.43	388.27
865.739	385.72
866.048	411.25
866.356	395.93
866.665	431.68
866.973	378.06
867.282	431.68
867.59	398.49
867.899	395.93
868.207	418.91
868.515	306.56
868.823	388.27
869.132	418.91
869.44	426.57
869.748	424.02
870.056	418.91
870.364	403.59
870.672	372.95
870.98	406.15
871.288	395.93
871.595	388.27
871.903	375.51
872.211	380.61
872.518	395.93
872.826	431.68
873.134	418.91
873.441	390.83
873.749	403.59
874.056	431.68
874.363	372.95
874.671	439.34
874.978	403.59
875.285	395.93
875.592	367.85
875.9	447
876.207	378.06
876.514	401.04
876.821	457.21
877.128	413.81
877.435	487.85
877.741	459.77
878.048	383.17
878.355	431.68
878.662	365.29
878.968	431.68
879.275	408.7
879.582	390.83
879.888	362.74
880.195	431.68
880.501	388.27
880.807	393.38
881.114	429.13
881.42	380.61
881.726	378.06
882.032	342.31
882.339	385.72
882.645	413.81
882.951	398.49
883.257	372.95
883.563	416.36
883.869	452.11
884.174	360.19
884.48	388.27
884.786	406.15
885.092	401.04
885.397	408.7
885.703	439.34
886.009	444.45
886.314	421.47
886.62	388.27
886.925	444.45
887.231	424.02
887.536	406.15
887.841	383.17
888.146	321.89
888.452	349.97
888.757	390.83
889.062	349.97
889.367	380.61
889.672	380.61
889.977	321.89
890.282	413.81
890.587	464.87
890.892	398.49
891.196	357.63
891.501	390.83
891.806	375.51
892.11	457.21
892.415	388.27
892.72	429.13
893.024	403.59
893.328	416.36
893.633	314.23
893.937	326.99
894.242	449.55
894.546	334.65
894.85	447
895.154	462.32
895.458	408.7
895.762	388.27
896.066	426.57
896.37	395.93
896.674	388.27
896.978	418.91
897.282	429.13
897.586	380.61
897.89	390.83
898.193	449.55
898.497	459.77
898.801	388.27
899.104	434.23
899.408	408.7
899.711	403.59
900.014	347.42
900.318	459.77
900.621	329.55
900.924	459.77
901.228	436.79
901.531	388.27
901.834	454.66
902.137	367.85
902.44	500.62
902.743	421.47
903.046	439.34
903.349	436.79
903.652	480.19
903.955	388.27
904.257	383.17
904.56	434.23
904.863	477.64
905.165	393.38
905.468	403.59
905.77	411.25
906.073	436.79
906.375	421.47
906.678	441.89
906.98	426.57
907.282	449.55
907.584	477.64
907.887	480.19
908.189	444.45
908.491	401.04
908.793	388.27
909.095	375.51
909.397	418.91
909.699	395.93
910.001	408.7
910.302	413.81
910.604	416.36
910.906	383.17
911.208	349.97
911.509	388.27
911.811	467.43
912.112	477.64
912.414	462.32
912.715	413.81
913.017	480.19
913.318	375.51
913.619	355.08
913.92	352.53
914.222	380.61
914.523	418.91
914.824	431.68
915.125	421.47
915.426	436.79
915.727	444.45
916.028	413.81
916.329	418.91
916.63	398.49
916.93	390.83
917.231	477.64
917.532	472.53
917.832	337.21
918.133	357.63
918.434	454.66
918.734	360.19
919.034	434.23
919.335	464.87
919.635	408.7
919.935	370.4
920.236	413.81
920.536	370.4
920.836	401.04
921.136	469.98
921.436	500.62
921.736	416.36
922.036	418.91
922.336	418.91
922.636	408.7
922.936	378.06
923.236	472.53
923.535	398.49
923.835	347.42
924.135	444.45
924.434	372.95
924.734	367.85
925.033	378.06
925.333	413.81
925.632	452.11
925.932	416.36
926.231	393.38
926.53	418.91
926.83	436.79
927.129	454.66
927.428	395.93
927.727	441.89
928.026	413.81
928.325	370.4
928.624	426.57
928.923	365.29
929.222	388.27
929.52	344.87
929.819	413.81
930.118	426.57
930.417	334.65
930.715	408.7
931.014	452.11
931.312	457.21
931.611	401.04
931.909	416.36
932.207	434.23
932.506	398.49
932.804	498.07
933.102	485.3
933.401	426.57
933.699	457.21
933.997	408.7
934.295	431.68
934.593	416.36
934.891	421.47
935.189	390.83
935.487	413.81
935.784	444.45
936.082	375.51
936.38	362.74
936.677	388.27
936.975	426.57
937.273	349.97
937.57	380.61
937.868	457.21
938.165	475.09
938.463	462.32
938.76	444.45
939.057	372.95
939.354	304.01
939.652	375.51
939.949	388.27
940.246	406.15
940.543	349.97
940.84	411.25
941.137	436.79
941.434	383.17
941.731	385.72
942.028	342.31
942.324	357.63
942.621	441.89
942.918	436.79
943.214	339.76
943.511	324.44
943.807	357.63
944.104	393.38
944.4	395.93
944.697	316.78
944.993	467.43
945.29	454.66
945.586	395.93
945.882	380.61
946.178	393.38
946.474	390.83
946.77	385.72
947.066	441.89
947.362	424.02
947.658	447
947.954	469.98
948.25	421.47
948.546	413.81
948.842	370.4
949.137	390.83
949.433	393.38
949.729	454.66
950.024	421.47
950.32	388.27
950.615	378.06
950.91	416.36
951.206	344.87
951.501	454.66
951.796	383.17
952.092	429.13
952.387	360.19
952.682	395.93
952.977	370.4
953.272	441.89
953.567	408.7
953.862	418.91
954.157	385.72
954.452	434.23
954.747	418.91
955.041	495.51
955.336	372.95
955.631	344.87
955.925	344.87
956.22	326.99
956.514	365.29
956.809	411.25
957.103	390.83
957.398	411.25
957.692	469.98
957.986	421.47
958.281	424.02
958.575	408.7
958.869	408.7
959.163	434.23
959.457	362.74
959.751	344.87
960.045	367.85
960.339	393.38
960.633	349.97
960.927	431.68
961.221	457.21
961.514	403.59
961.808	385.72
962.102	388.27
962.395	383.17
962.689	401.04
962.982	385.72
963.276	431.68
963.569	403.59
963.862	431.68
964.156	383.17
964.449	457.21
964.742	418.91
965.035	344.87
965.328	413.81
965.622	436.79
965.915	349.97
966.208	357.63
966.5	390.83
966.793	406.15
967.086	441.89
967.379	444.45
967.672	434.23
967.964	418.91
968.257	360.19
968.55	357.63
968.842	457.21
969.135	472.53
969.427	459.77
969.72	418.91
970.012	459.77
970.304	431.68
970.597	388.27
970.889	403.59
971.181	403.59
971.473	362.74
971.765	444.45
972.057	429.13
972.349	370.4
972.641	349.97
972.933	401.04
973.225	329.55
973.517	393.38
973.809	439.34
974.1	434.23
974.392	434.23
974.684	418.91
974.975	380.61
975.267	378.06
975.558	365.29
975.85	467.43
976.141	388.27
976.432	372.95
976.724	424.02
977.015	365.29
977.306	401.04
977.597	337.21
977.888	401.04
978.179	436.79
978.47	411.25
978.761	418.91
979.052	418.91
979.343	393.38
979.634	344.87
979.925	357.63
980.215	413.81
980.506	388.27
980.797	355.08
981.087	395.93
981.378	367.85
981.668	441.89
981.959	408.7
982.249	401.04
982.54	467.43
982.83	424.02
983.12	383.17
983.41	439.34
983.701	367.85
983.991	390.83
984.281	390.83
984.571	421.47
984.861	383.17
985.151	362.74
985.441	378.06
985.73	429.13
986.02	418.91
986.31	426.57
986.6	395.93
986.889	378.06
987.179	357.63
987.469	383.17
987.758	385.72
988.048	411.25
988.337	398.49
988.626	393.38
988.916	401.04
989.205	390.83
989.494	459.77
989.783	378.06
990.073	492.96
990.362	439.34
990.651	372.95
990.94	393.38
991.229	418.91
991.518	337.21
991.806	311.67
992.095	390.83
992.384	380.61
992.673	429.13
992.961	367.85
993.25	365.29
993.539	378.06
993.827	352.53
994.116	357.63
994.404	413.81
994.692	401.04
994.981	434.23
995.269	457.21
995.557	372.95
995.846	401.04
996.134	372.95
996.422	457.21
996.71	365.29
996.998	349.97
997.286	378.06
997.574	436.79
997.862	349.97
998.15	406.15
998.437	383.17
998.725	444.45
999.013	339.76
999.3	393.38
999.588	319.33
999.876	406.15
1000.163	360.19
1000.45	367.85
1000.738	349.97
1001.025	286.14
1001.313	380.61
1001.6	393.38
1001.887	439.34
1002.174	378.06
1002.461	383.17
1002.748	434.23
1003.036	380.61
1003.322	367.85
1003.609	429.13
1003.896	416.36
1004.183	426.57
1004.47	408.7
1004.757	413.81
1005.043	388.27
1005.33	452.11
1005.617	416.36
1005.903	408.7
1006.19	452.11
1006.476	449.55
1006.763	413.81
1007.049	431.68
1007.335	352.53
1007.622	424.02
1007.908	388.27
1008.194	395.93
1008.48	434.23
1008.766	457.21
1009.053	472.53
1009.339	413.81
1009.625	380.61
1009.91	360.19
1010.196	390.83
1010.482	367.85
1010.768	395.93
1011.054	403.59
1011.339	357.63
1011.625	362.74
1011.911	434.23
1012.196	447
1012.482	365.29
1012.767	378.06
1013.052	339.76
1013.338	375.51
1013.623	411.25
1013.908	436.79
1014.194	454.66
1014.479	413.81
1014.764	416.36
1015.049	429.13
1015.334	401.04
1015.619	426.57
1015.904	339.76
1016.189	395.93
1016.474	429.13
1016.758	434.23
1017.043	380.61
1017.328	408.7
1017.613	344.87
1017.897	434.23
1018.182	365.29
1018.466	388.27
1018.751	352.53
1019.035	421.47
1019.32	390.83
1019.604	385.72
1019.888	393.38
1020.172	393.38
1020.457	393.38
